File: tutorials/data/eis/LCO_1_Pristine_45C.txt
Index,Frequency (Hz),Z' (Ω),-Z'' (Ω),Z (Ω),-Phase (°),Time (s)
1,1000000,1.41118,-1.60294,2.13561,-48.6403,14.3776
2,794330,1.00765,-1.46618,1.77905,-55.5007,17.7172
3,630960,0.729702,-1.27837,1.47197,-60.282,19.447
4,501190,0.523053,-1.08811,1.20729,-64.3264,22.8823
5,398110,0.37781,-0.909645,0.984984,-67.4451,26.0915
6,316230,0.277432,-0.750981,0.800588,-69.7244,30.5454
7,251190,0.207524,-0.613571,0.647715,-71.3133,32.1697
8,199530,0.162435,-0.500364,0.526069,-72.0148,34.0324
9,158490,0.129939,-0.406447,0.426712,-72.2711,35.8553
10,125890,0.107419,-0.329854,0.346904,-71.9619,37.5604
11,100000,0.091336,-0.267311,0.282484,-71.1355,40.7921
12,79433,0.0798743,-0.216543,0.230804,-69.7529,42.5141
13,63096,0.071403,-0.1753,0.189284,-67.838,44.3258
14,50119,0.0650992,-0.141771,0.156003,-65.3361,46.1534
15,39811,0.0603656,-0.114559,0.12949,-62.2135,47.9798
16,31623,0.0568494,-0.0925011,0.108574,-58.4259,49.793
17,25119,0.0539528,-0.074246,0.0917789,-53.995,51.6106
18,19953,0.0519952,-0.0597126,0.0791776,-48.952,53.3724
19,15849,0.0506169,-0.0479722,0.0697381,-43.4634,55.1022
20,12589,0.0495951,-0.0384522,0.0627555,-37.7872,56.9256
21,10000,0.0487047,-0.0307095,0.0575779,-32.2325,60.0647
22,7943.3,0.0482342,-0.0244845,0.0540928,-26.9132,61.6827
23,6309.6,0.0479335,-0.0194741,0.0517384,-22.1105,63.4005
24,5011.9,0.0474924,-0.015353,0.0499123,-17.9146,65.2447
25,3981.1,0.0473942,-0.012121,0.0489197,-14.3458,66.9454
26,3162.3,0.0473659,-0.00952619,0.0483144,-11.3716,68.658
27,2511.9,0.0473552,-0.00743313,0.047935,-8.92067,70.4555
28,1995.3,0.0473676,-0.00573401,0.0477134,-6.90226,72.229
29,1584.9,0.0474007,-0.00436199,0.047601,-5.25777,73.9096
30,1258.9,0.0474423,-0.00325814,0.047554,-3.92867,75.6187
31,1000,0.04766,-0.00230772,0.0477158,-2.77213,77.342
32,794.33,0.047776,-0.00161612,0.0478033,-1.9374,79.1876
33,630.96,0.0476993,-0.00106831,0.0477112,-1.28303,80.8948
34,501.19,0.0478678,-0.000635454,0.047872,-0.760568,82.6278
35,398.11,0.0480293,-0.000291541,0.0480302,-0.347785,84.3497
36,316.23,0.0481711,-2.13811e-05,0.0481711,-0.0254311,86.0773
37,251.19,0.0483072,0.000190816,0.0483076,0.22632,87.8201
38,199.53,0.0484714,0.000361409,0.0484727,0.427197,89.557
39,158.49,0.0486284,0.000501419,0.048631,0.590769,91.3321
40,125.89,0.0487435,0.000624556,0.0487475,0.734098,93.1194
41,100,0.0488692,0.000736228,0.0488747,0.863112,94.901
42,79.433,0.0490329,0.000836357,0.0490401,0.977202,96.7188
43,63.096,0.0491701,0.00093527,0.049179,1.0897,98.611
44,50.119,0.0492916,0.00103081,0.0493024,1.19802,100.678
45,39.811,0.0494648,0.00112725,0.0494776,1.30548,102.622
46,31.623,0.0496416,0.00121637,0.0496565,1.40364,104.703
47,25.119,0.0498512,0.0012971,0.0498681,1.49046,106.768
48,19.953,0.0501081,0.00135319,0.0501264,1.54692,109.092
49,15.849,0.0503083,0.00139314,0.0503276,1.58623,111.45
50,12.589,0.0505302,0.00141764,0.0505501,1.60703,113.912
51,10,0.0507979,0.0014222,0.0508178,1.6037,116.6
52,7.9433,0.0510424,0.00141298,0.0510619,1.58568,119.325
53,6.3096,0.0512547,0.00139985,0.0512738,1.56445,122.151
54,5.0119,0.0514322,0.00137596,0.0514506,1.53246,125.016
55,3.9811,0.0516258,0.00135634,0.0516436,1.50496,127.832
56,3.1623,0.0517865,0.00134643,0.051804,1.48934,130.797
57,2.5119,0.051983,0.00134588,0.0520004,1.4831,133.713
58,1.9953,0.0521117,0.0013651,0.0521296,1.50056,136.827
59,1.5849,0.0522367,0.00139918,0.0522554,1.53433,140.01
60,1.2589,0.0524232,0.00146194,0.0524435,1.59741,143.366
61,1,0.0525315,0.00154581,0.0525543,1.68552,147.005
62,0.79433,0.0527316,0.00167221,0.0527581,1.81634,150.674
63,0.63096,0.0528685,0.00183074,0.0529002,1.98326,154.553
64,0.50119,0.0530097,0.0020337,0.0530487,2.19705,158.81
65,0.39811,0.0532128,0.00224951,0.0532603,2.42068,163.43
66,0.31623,0.0534621,0.00252731,0.0535218,2.70653,168.65
67,0.25119,0.0536731,0.00286067,0.0537493,3.05086,174.496
68,0.19953,0.0539793,0.00320516,0.0540744,3.39809,181.185
69,0.15849,0.0542629,0.00364273,0.054385,3.84058,188.89
70,0.12589,0.0545353,0.00417674,0.054695,4.3796,197.823
71,0.1,0.0548813,0.00488116,0.055098,5.08253,208.463