File: tutorials/data/eis/LCO_1_Pristine_35C.txt
Index,Frequency (Hz),Z' (Ω),-Z'' (Ω),Z (Ω),-Phase (°),Time (s)
1,1000000,1.36942,-1.47911,2.01571,-47.2053,18.9919
2,794330,0.994224,-1.35851,1.68346,-53.8015,20.8528
3,630960,0.736795,-1.18848,1.39834,-58.2033,24.2683
4,501190,0.543452,-1.01762,1.15364,-61.8959,30.411
5,398110,0.406161,-0.85701,0.948384,-64.6424,35.0581
6,316230,0.308878,-0.712963,0.776995,-66.5762,38.1955
7,251190,0.239143,-0.58894,0.635641,-67.9001,41.3108
8,199530,0.191964,-0.485567,0.522136,-68.4291,44.526
9,158490,0.156588,-0.398873,0.428508,-68.5662,46.256
10,125890,0.13063,-0.32652,0.351681,-68.1953,47.9782
11,100000,0.111613,-0.266812,0.289217,-67.2995,51.2047
12,79433,0.0976166,-0.217295,0.238215,-65.8087,52.9253
13,63096,0.0872923,-0.176666,0.197055,-63.7056,54.7429
14,50119,0.0796041,-0.143181,0.163822,-60.9273,56.5542
15,39811,0.0740526,-0.115898,0.137536,-57.4236,58.375
16,31623,0.0700094,-0.0936049,0.11689,-53.2063,60.0866
17,25119,0.0670449,-0.0754273,0.100917,-48.3671,61.8136
18,19953,0.0645841,-0.0604001,0.0884267,-43.0827,63.5558
19,15849,0.063016,-0.0484309,0.0794769,-37.5441,65.307
20,12589,0.0619321,-0.0387755,0.0730693,-32.0506,67.0309
21,10000,0.0611439,-0.0309417,0.0685271,-26.8416,70.2909
22,7943.3,0.0606349,-0.0246185,0.065442,-22.0977,71.9413
23,6309.6,0.0603567,-0.0195335,0.0634389,-17.9334,73.662
24,5011.9,0.0598949,-0.0153567,0.0618322,-14.3805,75.4842
25,3981.1,0.0598435,-0.0120743,0.0610494,-11.4071,77.2563
26,3162.3,0.0598524,-0.00943949,0.0605922,-8.96246,78.9558
27,2511.9,0.059843,-0.00728084,0.0602843,-6.93683,80.6726
28,1995.3,0.0599309,-0.0055458,0.0601869,-5.2869,82.4045
29,1584.9,0.0599814,-0.00414777,0.0601246,-3.95576,84.0947
30,1258.9,0.0600674,-0.00302374,0.0601435,-2.88178,85.7919
31,1000,0.0604116,-0.00206951,0.060447,-1.962,87.4988
32,794.33,0.0606162,-0.00136386,0.0606315,-1.28893,89.3572
33,630.96,0.0605526,-0.000805181,0.0605579,-0.76183,91.0717
34,501.19,0.0607405,-0.000356967,0.0607416,-0.336718,92.814
35,398.11,0.0609449,5.81453e-07,0.0609449,0.000546638,94.5263
36,316.23,0.0611518,0.000283657,0.0611524,0.265769,96.2984
37,251.19,0.0613566,0.000506722,0.0613587,0.473174,98.0386
38,199.53,0.0615555,0.000682885,0.0615593,0.635602,99.7702
39,158.49,0.0617714,0.000826439,0.0617769,0.766514,101.547
40,125.89,0.0619728,0.000950071,0.0619801,0.8783,103.344
41,100,0.0621619,0.00106635,0.062171,0.982782,105.111
42,79.433,0.0623275,0.00116591,0.0623384,1.07166,106.927
43,63.096,0.0625186,0.00127418,0.0625316,1.16757,108.84
44,50.119,0.0627024,0.00139811,0.062718,1.27735,110.905
45,39.811,0.0628777,0.00153245,0.0628964,1.39613,112.848
46,31.623,0.0630901,0.00168714,0.0631126,1.53183,114.909
47,25.119,0.0633347,0.00185282,0.0633618,1.67568,116.991
48,19.953,0.0636059,0.00200788,0.0636375,1.80809,119.289
49,15.849,0.0639693,0.00217128,0.0640062,1.94401,121.675
50,12.589,0.0643306,0.00231918,0.0643724,2.06468,124.138
51,10,0.0647396,0.00244338,0.0647857,2.16141,126.833
52,7.9433,0.0651684,0.00253194,0.0652176,2.22495,129.543
53,6.3096,0.0655971,0.00258878,0.0656482,2.26,132.338
54,5.0119,0.0660066,0.00260824,0.0660581,2.26285,135.186
55,3.9811,0.0664678,0.00260533,0.0665189,2.24467,138.017
56,3.1623,0.0668175,0.00257877,0.0668672,2.21019,141.009
57,2.5119,0.067229,0.002545,0.0672772,2.16793,144
58,1.9953,0.0675714,0.00251296,0.0676181,2.12983,147.12
59,1.5849,0.067915,0.00248741,0.0679605,2.09754,150.308
60,1.2589,0.0682006,0.00247789,0.0682456,2.08077,153.675
61,1,0.0685363,0.00249236,0.0685816,2.08268,157.334
62,0.79433,0.0688062,0.00255444,0.0688536,2.12614,160.942
63,0.63096,0.0691181,0.00265432,0.069169,2.19923,164.798
64,0.50119,0.0693541,0.00280991,0.069411,2.32009,169.014
65,0.39811,0.0696827,0.00299195,0.0697469,2.45858,173.674
66,0.31623,0.0699939,0.00324626,0.0700692,2.65543,178.88
67,0.25119,0.070285,0.00358267,0.0703763,2.91803,184.7
68,0.19953,0.0706681,0.0039313,0.0707774,3.18411,191.299
69,0.15849,0.0710276,0.00439316,0.0711633,3.53932,199.027
70,0.12589,0.0713886,0.0049775,0.0715619,3.98843,207.974
71,0.1,0.0718694,0.00571126,0.072096,4.54359,218.596