File: tutorials/data/eis/LCO_3_Pristine_15C.txt
Index,Frequency (Hz),Z' (Ω),-Z'' (Ω),Z (Ω),-Phase (°),Time (s)
1,1000000,1.12663,-1.25363,1.68549,-48.0541,14.3547
2,794330,0.806495,-1.14961,1.40429,-54.9489,16.1906
3,630960,0.587246,-1.00011,1.15977,-59.5793,19.6413
4,501190,0.425044,-0.852069,0.9522,-63.4883,22.9489
5,398110,0.31071,-0.712907,0.777674,-66.4507,27.5848
6,316230,0.231363,-0.588615,0.632453,-68.5421,30.7448
7,251190,0.176075,-0.481841,0.513004,-69.9267,33.8447
8,199530,0.140178,-0.393157,0.4174,-70.3766,35.5704
9,158490,0.114368,-0.319846,0.339679,-70.3244,37.4093
10,125890,0.0962847,-0.259646,0.276924,-69.6537,39.1165
11,100000,0.0833305,-0.210522,0.226415,-68.405,42.3415
12,79433,0.0740358,-0.170596,0.185968,-66.5399,43.9929
13,63096,0.067238,-0.138185,0.153675,-64.0534,45.8033
14,50119,0.0621935,-0.111822,0.127954,-60.918,47.6256
15,39811,0.0584118,-0.090366,0.107601,-57.1217,49.4614
16,31623,0.0553098,-0.0725896,0.0912602,-52.6943,51.1828
17,25119,0.0532356,-0.0584439,0.0790552,-47.6701,53.0035
18,19953,0.0516928,-0.0469207,0.0698119,-42.2295,54.8208
19,15849,0.0506206,-0.0376035,0.0630592,-36.6068,56.6023
20,12589,0.0498298,-0.0300213,0.0581746,-31.068,58.3232
21,10000,0.0492303,-0.0238255,0.0546925,-25.8252,61.4625
22,7943.3,0.0488797,-0.0188288,0.0523808,-21.067,63.1341
23,6309.6,0.048707,-0.0147928,0.0509038,-16.8941,64.8594
24,5011.9,0.0483881,-0.0114639,0.0497276,-13.3285,66.6015
25,3981.1,0.0483878,-0.00881977,0.0491851,-10.33,68.3393
26,3162.3,0.0484709,-0.00667244,0.048928,-7.838,70.0587
27,2511.9,0.0485754,-0.00491347,0.0488233,-5.7759,71.7954
28,1995.3,0.0487105,-0.00345484,0.0488329,-4.05697,73.5069
29,1584.9,0.0488788,-0.00224564,0.0489304,-2.63049,75.2495
30,1258.9,0.0491233,-0.00124645,0.0491391,-1.4535,76.9508
31,1000,0.0495584,-0.000362988,0.0495597,-0.419653,78.6714
32,794.33,0.0498938,0.000318354,0.0498948,0.365578,80.4797
33,630.96,0.05003,0.000875702,0.0500376,1.00278,82.2136
34,501.19,0.0504188,0.00134568,0.0504367,1.52886,83.944
35,398.11,0.0508234,0.00173616,0.0508531,1.9565,85.6507
36,316.23,0.0512813,0.00206161,0.0513227,2.30216,87.3941
37,251.19,0.0517368,0.00232515,0.051789,2.57326,89.2077
38,199.53,0.0522057,0.00254016,0.0522674,2.78563,90.9397
39,158.49,0.0527136,0.00271351,0.0527834,2.94678,92.6808
40,125.89,0.0532045,0.00285366,0.053281,3.07016,94.5229
41,100,0.0536957,0.0029732,0.0537779,3.16931,96.3038
42,79.433,0.0541228,0.0030588,0.0542092,3.23468,98.136
43,63.096,0.0545686,0.00314682,0.0546592,3.30043,99.9989
44,50.119,0.0549895,0.00324666,0.0550853,3.3789,102.094
45,39.811,0.0553856,0.00337767,0.0554885,3.48984,104.036
46,31.623,0.0557689,0.00355421,0.055882,3.64659,106.074
47,25.119,0.0561746,0.00379343,0.0563025,3.86328,108.175
48,19.953,0.0566047,0.0040949,0.0567526,4.13768,110.476
49,15.849,0.0570554,0.00449815,0.0572325,4.50778,112.816
50,12.589,0.0575534,0.00499127,0.0577694,4.95653,115.299
51,10,0.058126,0.0055845,0.0583937,5.48789,117.993
52,7.9433,0.0588091,0.00627945,0.0591434,6.09476,120.767
53,6.3096,0.0596711,0.00706528,0.060088,6.75259,123.597
54,5.0119,0.060682,0.00792083,0.0611967,7.43678,126.399
55,3.9811,0.0618756,0.00881254,0.0625,8.10575,129.22
56,3.1623,0.0632688,0.00971053,0.0640097,8.7257,132.151
57,2.5119,0.0648934,0.0105604,0.065747,9.24299,135.158
58,1.9953,0.0666823,0.0113261,0.0676374,9.63978,138.23
59,1.5849,0.0686313,0.0119545,0.0696647,9.8809,141.353
60,1.2589,0.0707111,0.012434,0.071796,9.97308,144.694
61,1,0.0728227,0.012772,0.0739342,9.94765,148.359
62,0.79433,0.0749908,0.0129338,0.076098,9.7856,152.026
63,0.63096,0.0770711,0.0129822,0.0781568,9.56137,155.916
64,0.50119,0.0791021,0.0129579,0.0801564,9.30316,160.182
65,0.39811,0.0810119,0.01292,0.0820357,9.06141,164.9
66,0.31623,0.0828785,0.0128644,0.083871,8.82303,170.026
67,0.25119,0.0848003,0.0128863,0.0857738,8.6406,175.857
68,0.19953,0.0863457,0.0128049,0.08729,8.43538,182.539
69,0.15849,0.0879558,0.0130246,0.0889149,8.42323,190.296
70,0.12589,0.0895763,0.0133276,0.0905623,8.46264,199.228
71,0.1,0.0913442,0.0137295,0.0923702,8.54789,209.846