File: tutorials/data/eis/LCO_1_Pristine_15C.txt
Index,Frequency (Hz),Z' (Ω),-Z'' (Ω),Z (Ω),-Phase (°),Time (s)
1,1000000,1.18516,-1.32012,1.77407,-48.0835,14.3518
2,794330,0.851338,-1.20893,1.47861,-54.8465,16.1883
3,630960,0.622175,-1.05158,1.22186,-59.3891,19.6399
4,501190,0.452388,-0.894658,1.00253,-63.1763,22.9589
5,398110,0.333449,-0.748803,0.819691,-65.9962,27.5824
6,316230,0.250677,-0.618711,0.667564,-67.9442,30.7549
7,251190,0.192878,-0.507196,0.542633,-69.179,33.8948
8,199530,0.155232,-0.415193,0.443264,-69.5003,35.6273
9,158490,0.127695,-0.339021,0.362272,-69.3607,37.4813
10,125890,0.108006,-0.27666,0.296995,-68.6748,39.2078
11,100000,0.0933949,-0.225606,0.244174,-67.5118,42.4544
12,79433,0.0825291,-0.184028,0.201687,-65.8457,44.1895
13,63096,0.0742148,-0.149986,0.167343,-63.6733,46.002
14,50119,0.0677872,-0.122016,0.139581,-60.9452,47.8252
15,39811,0.0629013,-0.0991054,0.117382,-57.5971,49.6915
16,31623,0.0591869,-0.0802136,0.099686,-53.5776,51.509
17,25119,0.0561682,-0.0645013,0.0855295,-48.9504,53.2256
18,19953,0.0541811,-0.0519057,0.0750319,-43.7713,55.0535
19,15849,0.0527509,-0.0416242,0.0671955,-38.276,56.8288
20,12589,0.0517453,-0.0332762,0.0615214,-32.7441,58.5444
21,10000,0.0509675,-0.0264624,0.0574278,-27.4384,61.6594
22,7943.3,0.0504986,-0.0209294,0.054664,-22.5118,63.2861
23,6309.6,0.0502861,-0.0164678,0.0529139,-18.1327,65.005
24,5011.9,0.0498997,-0.0127741,0.0515088,-14.3591,66.7376
25,3981.1,0.0498916,-0.00984829,0.0508543,-11.1663,68.4649
26,3162.3,0.0499668,-0.00747203,0.0505224,-8.50499,70.2169
27,2511.9,0.0500571,-0.00552559,0.0503612,-6.29913,72.0287
28,1995.3,0.0502193,-0.00392018,0.050372,-4.46353,73.7344
29,1584.9,0.0504424,-0.00259717,0.0505092,-2.94743,75.4609
30,1258.9,0.0506621,-0.00150279,0.0506844,-1.69907,77.1581
31,1000,0.0510664,-0.000532646,0.0510691,-0.5976,78.8727
32,794.33,0.0514243,0.000208569,0.0514247,0.232382,80.7104
33,630.96,0.0515574,0.000811894,0.0515638,0.902183,82.4222
34,501.19,0.051952,0.00132187,0.0519688,1.45752,84.1645
35,398.11,0.0523855,0.00174643,0.0524146,1.90942,85.8618
36,316.23,0.0528538,0.00209716,0.0528954,2.27222,87.6397
37,251.19,0.0533175,0.00238546,0.0533709,2.56174,89.4001
38,199.53,0.0538189,0.00262313,0.0538828,2.79039,91.1251
39,158.49,0.0543195,0.0028146,0.0543924,2.96616,92.8666
40,125.89,0.0548235,0.00297144,0.0549039,3.10241,94.6896
41,100,0.0553378,0.0031061,0.0554249,3.21263,96.4566
42,79.433,0.0558068,0.00320537,0.0558988,3.28728,98.2802
43,63.096,0.0563052,0.00330222,0.056402,3.35647,100.174
44,50.119,0.0566896,0.00340392,0.0567917,3.43619,102.249
45,39.811,0.0571326,0.00353638,0.0572419,3.54197,104.194
46,31.623,0.0575502,0.00370814,0.0576696,3.68665,106.213
47,25.119,0.0579785,0.00393984,0.0581122,3.88747,108.309
48,19.953,0.058416,0.00423047,0.058569,4.14211,110.595
49,15.849,0.0589031,0.0046204,0.059084,4.48514,112.936
50,12.589,0.0593932,0.00510622,0.0596123,4.91381,115.397
51,10,0.0599812,0.00569577,0.060251,5.4245,118.095
52,7.9433,0.0606578,0.00639155,0.0609936,6.01509,120.849
53,6.3096,0.0615139,0.00718589,0.0619322,6.66294,123.673
54,5.0119,0.0625055,0.00805253,0.063022,7.34094,126.47
55,3.9811,0.0636966,0.0089736,0.0643256,8.01907,129.281
56,3.1623,0.0651605,0.00991373,0.0659103,8.65083,132.224
57,2.5119,0.066741,0.0107972,0.0676087,9.18958,135.25
58,1.9953,0.0686292,0.0116145,0.0696051,9.60545,138.342
59,1.5849,0.0706214,0.0122906,0.071683,9.87255,141.522
60,1.2589,0.0727991,0.0128291,0.0739209,9.99438,144.84
61,1,0.0749402,0.0131547,0.076086,9.95602,148.496
62,0.79433,0.077203,0.0133642,0.0783512,9.82083,152.159
63,0.63096,0.0793513,0.0134046,0.0804755,9.5883,156.049
64,0.50119,0.0814168,0.0134089,0.0825136,9.35235,160.316
65,0.39811,0.083513,0.0132724,0.0845611,9.03029,165.028
66,0.31623,0.0853709,0.0131587,0.0863791,8.76235,170.188
67,0.25119,0.0871307,0.0131452,0.0881167,8.57934,176.044
68,0.19953,0.0889766,0.0131158,0.0899381,8.38546,182.712
69,0.15849,0.0904956,0.0132243,0.0914567,8.31387,190.489
70,0.12589,0.0921069,0.0135121,0.0930927,8.34576,199.442
71,0.1,0.0935941,0.0142464,0.0946721,8.65482,210.062