File: tutorials/data/eis/LCO_3_Pristine_35C.txt
Index,Frequency (Hz),Z' (Ω),-Z'' (Ω),Z (Ω),-Phase (°),Time (s)
1,1000000,1.32864,-1.45985,1.97394,-47.6939,19.0483
2,794330,0.957118,-1.33757,1.64474,-54.4139,20.8969
3,630960,0.702823,-1.16712,1.3624,-58.9443,24.3006
4,501190,0.512745,-0.994047,1.1185,-62.7146,27.6436
5,398110,0.379213,-0.831522,0.91391,-65.4848,30.8898
6,316230,0.286932,-0.687318,0.744807,-67.3411,35.3561
7,251190,0.222765,-0.561878,0.604426,-68.3734,38.5297
8,199530,0.180962,-0.458491,0.492911,-68.4613,40.2503
9,158490,0.15094,-0.372701,0.402105,-67.9526,42.0937
10,125890,0.13007,-0.302531,0.329307,-66.7351,43.8049
11,100000,0.115141,-0.245365,0.271038,-64.8611,47.0085
12,79433,0.104475,-0.198939,0.224704,-62.2933,48.7237
13,63096,0.0965803,-0.161244,0.187956,-59.0797,50.5906
14,50119,0.090636,-0.130594,0.158964,-55.2382,52.4136
15,39811,0.0861303,-0.105656,0.136315,-50.8133,54.231
16,31623,0.0827734,-0.0853973,0.118929,-45.8939,55.9575
17,25119,0.0802129,-0.0688859,0.105733,-40.6556,57.7083
18,19953,0.0779422,-0.0552452,0.0955354,-35.3289,59.4399
19,15849,0.0765517,-0.0443654,0.0884786,-30.0944,61.2613
20,12589,0.0755413,-0.0355362,0.0834824,-25.1933,62.9915
21,10000,0.0748694,-0.0283882,0.0800707,-20.7652,66.1199
22,7943.3,0.0744301,-0.0225984,0.0777851,-16.8893,67.7457
23,6309.6,0.0741657,-0.0179291,0.076302,-13.5902,69.4677
24,5011.9,0.0736467,-0.0140949,0.0749834,-10.8345,71.2154
25,3981.1,0.0736275,-0.0110778,0.0744562,-8.55636,72.9172
26,3162.3,0.0736044,-0.00862581,0.0741081,-6.68409,74.6243
27,2511.9,0.0735808,-0.00663927,0.0738798,-5.15589,76.4695
28,1995.3,0.0735837,-0.00504052,0.0737561,-3.91867,78.192
29,1584.9,0.0736624,-0.003756,0.0737581,-2.91895,79.8705
30,1258.9,0.0737522,-0.00272418,0.0738025,-2.11537,81.5664
31,1000,0.0740599,-0.00186852,0.0740834,-1.44526,83.3477
32,794.33,0.0742684,-0.00121755,0.0742784,-0.939221,85.1699
33,630.96,0.0744466,-0.000696614,0.0744499,-0.536114,86.8824
34,501.19,0.0743736,-0.000293363,0.0743742,-0.225999,88.6295
35,398.11,0.0745724,3.47851e-05,0.0745724,0.0267263,90.3328
36,316.23,0.0747599,0.00029215,0.0747605,0.223902,92.0677
37,251.19,0.0749541,0.000496732,0.0749558,0.379702,93.8244
38,199.53,0.075149,0.000659281,0.0751519,0.502642,95.5887
39,158.49,0.0753677,0.000792278,0.0753719,0.602281,97.3344
40,125.89,0.0755701,0.000911278,0.0755756,0.69088,99.1277
41,100,0.0757531,0.00102584,0.07576,0.775846,100.903
42,79.433,0.0759139,0.00112599,0.0759223,0.849771,102.743
43,63.096,0.0760729,0.00123543,0.0760829,0.930407,104.602
44,50.119,0.0762488,0.00135822,0.0762609,1.0205,106.682
45,39.811,0.0764248,0.00149766,0.0764395,1.12266,108.68
46,31.623,0.0766556,0.00165241,0.0766734,1.2349,110.695
47,25.119,0.076905,0.00181867,0.0769265,1.3547,112.76
48,19.953,0.0772165,0.00197321,0.0772418,1.46383,115.09
49,15.849,0.0775671,0.00213194,0.0775964,1.57439,117.457
50,12.589,0.0779633,0.0022757,0.0779965,1.67195,119.927
51,10,0.0783515,0.00239388,0.0783881,1.75002,122.638
52,7.9433,0.078773,0.0024793,0.078812,1.80273,125.348
53,6.3096,0.0792583,0.00253521,0.0792989,1.83207,128.194
54,5.0119,0.0796445,0.00255721,0.0796856,1.83901,130.975
55,3.9811,0.080086,0.00255266,0.0801267,1.82563,133.827
56,3.1623,0.0805697,0.00252536,0.0806093,1.79528,136.771
57,2.5119,0.0809854,0.00249565,0.0810238,1.76507,139.767
58,1.9953,0.0813564,0.00246277,0.0813937,1.73389,142.836
59,1.5849,0.0817395,0.00244122,0.0817759,1.71068,145.959
60,1.2589,0.0820583,0.00243277,0.0820944,1.69814,149.263
61,1,0.0823625,0.00243734,0.0823986,1.69505,152.924
62,0.79433,0.0826827,0.00249588,0.0827203,1.72902,156.581
63,0.63096,0.083034,0.00258426,0.0830742,1.78263,160.49
64,0.50119,0.0832812,0.00274179,0.0833263,1.88562,164.718
65,0.39811,0.0836297,0.00290468,0.0836801,1.98923,169.328
66,0.31623,0.083967,0.0031389,0.0840257,2.14086,174.51
67,0.25119,0.0843204,0.00348439,0.0843923,2.3663,180.375
68,0.19953,0.0847925,0.0037948,0.0848774,2.5625,186.982
69,0.15849,0.0851716,0.00426062,0.0852781,2.86378,194.672
70,0.12589,0.0856455,0.0047885,0.0857792,3.20011,203.648
71,0.1,0.0861371,0.00549268,0.086312,3.64863,214.23