File: tutorials/data/eis/LCO_1_Pristine_5C.txt
Index,Frequency (Hz),Z' (Ω),-Z'' (Ω),Z (Ω),-Phase (°),Time (s)
1,1000000,1.29733,-1.49191,1.97709,-48.9905,14.4148
2,794330,0.92598,-1.35977,1.64511,-55.7457,16.2664
3,630960,0.671834,-1.17926,1.35721,-60.3294,19.6816
4,501190,0.484459,-0.999999,1.11117,-64.1517,23.0422
5,398110,0.353626,-0.834081,0.905949,-67.0245,27.6862
6,316230,0.263453,-0.687246,0.736013,-69.0259,30.8976
7,251190,0.200759,-0.560716,0.595573,-70.3005,34.015
8,199530,0.160562,-0.45663,0.484036,-70.6272,35.7829
9,158490,0.131739,-0.370562,0.393283,-70.4291,37.6104
10,125890,0.111738,-0.300352,0.320463,-69.5936,39.3203
11,100000,0.0974788,-0.243016,0.261837,-68.1432,42.5853
12,79433,0.0873899,-0.196674,0.215215,-66.0426,44.2191
13,63096,0.0799516,-0.158913,0.177892,-63.2923,45.9495
14,50119,0.0745136,-0.128422,0.148474,-59.8767,47.7556
15,39811,0.0704196,-0.103566,0.125239,-55.7862,49.5072
16,31623,0.067401,-0.0834038,0.107234,-51.0573,51.3185
17,25119,0.0648698,-0.0667738,0.0930959,-45.8286,53.0699
18,19953,0.0632623,-0.0535452,0.0828807,-40.2446,54.9069
19,15849,0.0620838,-0.0428009,0.0754076,-34.5826,56.6424
20,12589,0.0612714,-0.0341065,0.0701244,-29.1023,58.4696
21,10000,0.0606782,-0.027052,0.0664354,-24.0286,61.616
22,7943.3,0.0603233,-0.0213175,0.0639792,-19.4628,63.2352
23,6309.6,0.0602318,-0.0167001,0.0625041,-15.4967,64.9553
24,5011.9,0.0598423,-0.0128594,0.0612084,-12.1277,66.7007
25,3981.1,0.0599386,-0.00981984,0.0607376,-9.30421,68.4373
26,3162.3,0.0600874,-0.00733568,0.0605335,-6.96043,70.138
27,2511.9,0.0602071,-0.00527438,0.0604377,-5.00655,71.8576
28,1995.3,0.0604032,-0.00357222,0.0605087,-3.3845,73.5789
29,1584.9,0.0606378,-0.0021557,0.0606761,-2.03603,75.1752
30,1258.9,0.0609119,-0.00096692,0.0609196,-0.90944,76.8816
31,1000,0.0614089,7.65098e-05,0.061409,0.0713852,78.5961
32,794.33,0.0618664,0.000928195,0.0618734,0.859556,80.4487
33,630.96,0.0620768,0.0016456,0.0620986,1.5185,82.1628
34,501.19,0.0626095,0.00228463,0.0626512,2.08981,83.8893
35,398.11,0.063161,0.002841,0.0632248,2.57544,85.5996
36,316.23,0.0637961,0.00333921,0.0638834,2.99624,87.3575
37,251.19,0.0644964,0.00377845,0.064607,3.35277,89.1086
38,199.53,0.0651549,0.0041646,0.0652878,3.65728,90.8354
39,158.49,0.0659193,0.0045101,0.0660734,3.914,92.5753
40,125.89,0.0667151,0.00481527,0.0668886,4.12826,94.3898
41,100,0.0674906,0.0050851,0.0676819,4.30883,96.1704
42,79.433,0.0683121,0.00531357,0.0685184,4.44772,97.9764
43,63.096,0.0691337,0.00551746,0.0693536,4.56302,99.8658
44,50.119,0.0699235,0.00571357,0.0701565,4.67136,101.938
45,39.811,0.0707171,0.00591603,0.0709641,4.7821,103.884
46,31.623,0.0715075,0.00614343,0.0717709,4.9104,105.918
47,25.119,0.0723389,0.0064196,0.0726232,5.07133,107.998
48,19.953,0.0730858,0.00673368,0.0733954,5.26402,110.297
49,15.849,0.0739271,0.00716553,0.0742735,5.53621,112.638
50,12.589,0.0746803,0.00770335,0.0750766,5.88929,115.095
51,10,0.0755228,0.00839885,0.0759883,6.34576,117.79
52,7.9433,0.0764316,0.009279,0.0769928,6.92199,120.537
53,6.3096,0.0774084,0.0103609,0.0780987,7.62356,123.348
54,5.0119,0.0785885,0.0116831,0.0794522,8.45578,126.197
55,3.9811,0.0799482,0.0132493,0.0810386,9.40972,129.026
56,3.1623,0.0815786,0.0150584,0.0829567,10.4583,131.989
57,2.5119,0.0835967,0.0171077,0.0853292,11.5656,135.01
58,1.9953,0.0859933,0.0193242,0.0881378,12.665,138.086
59,1.5849,0.0889487,0.0216669,0.0915496,13.69,141.223
60,1.2589,0.0923974,0.0240366,0.0954727,14.5819,144.559
61,1,0.0963863,0.0262979,0.0999094,15.2611,148.218
62,0.79433,0.10093,0.0283386,0.104833,15.6833,151.924
63,0.63096,0.106421,0.030275,0.110644,15.8802,155.875
64,0.50119,0.111642,0.0317341,0.116064,15.8678,160.144
65,0.39811,0.117184,0.03271,0.121663,15.5963,164.826
66,0.31623,0.122834,0.0333746,0.127287,15.2006,169.978
67,0.25119,0.12829,0.0336884,0.132639,14.7135,175.818
68,0.19953,0.133834,0.0336695,0.138005,14.1212,182.425
69,0.15849,0.139339,0.0336797,0.143351,13.5884,190.112
70,0.12589,0.1442,0.0336345,0.148071,13.1294,199.109
71,0.1,0.149335,0.0337928,0.153111,12.7506,209.74