File: tutorials/data/eis/LCO_1_Pristine_25C.txt
Index,Frequency (Hz),Z' (Ω),-Z'' (Ω),Z (Ω),-Phase (°),Time (s)
1,1000000,1.34165,-1.45139,1.9765,-47.2501,14.3919
2,794330,0.975421,-1.33391,1.6525,-53.8238,16.2393
3,630960,0.7226,-1.16633,1.37203,-58.2197,19.654
4,501190,0.533693,-0.999614,1.13316,-61.9023,23.0161
5,398110,0.398628,-0.843502,0.932952,-64.7052,26.2228
6,316230,0.302348,-0.704007,0.766186,-66.7581,30.6421
7,251190,0.232171,-0.581965,0.626568,-68.2509,32.2688
8,199530,0.184686,-0.480905,0.515149,-68.9912,34.0866
9,158490,0.148691,-0.395545,0.42257,-69.398,35.9027
10,125890,0.122342,-0.324247,0.346559,-69.328,37.6101
11,100000,0.10291,-0.26496,0.284243,-68.7739,40.8886
12,79433,0.0887113,-0.215917,0.23343,-67.6642,42.514
13,63096,0.0782759,-0.17556,0.19222,-65.9697,44.3123
14,50119,0.0705512,-0.142312,0.15884,-63.6301,46.1383
15,39811,0.064928,-0.115132,0.132178,-60.5795,47.9758
16,31623,0.0608441,-0.0929429,0.111087,-56.7896,49.6977
17,25119,0.0578991,-0.0748711,0.0946466,-52.2846,51.5157
18,19953,0.0554918,-0.0599361,0.0816803,-47.205,53.3861
19,15849,0.0539939,-0.0480784,0.0722971,-41.6832,55.1316
20,12589,0.0529397,-0.0384872,0.0654513,-36.0172,56.955
21,10000,0.0520375,-0.0306719,0.0604041,-30.5159,60.1083
22,7943.3,0.0515744,-0.0243763,0.0570449,-25.2974,61.7226
23,6309.6,0.0513039,-0.0192991,0.0548137,-20.6149,63.4498
24,5011.9,0.050894,-0.0151191,0.0530922,-16.5451,65.2003
25,3981.1,0.0508268,-0.0118126,0.0521814,-13.0838,66.914
26,3162.3,0.0508454,-0.00914178,0.0516607,-10.1926,68.6157
27,2511.9,0.0509152,-0.00697497,0.0513907,-7.80051,70.4381
28,1995.3,0.0509741,-0.00519788,0.0512385,-5.82238,72.2027
29,1584.9,0.0511397,-0.00375947,0.0512777,-4.20446,73.7949
30,1258.9,0.0512749,-0.00258875,0.0513402,-2.89028,75.5016
31,1000,0.051598,-0.00156449,0.0516217,-1.73672,77.2436
32,794.33,0.0518549,-0.000817815,0.0518614,-0.903549,79.091
33,630.96,0.0519069,-0.000220467,0.0519074,-0.243354,80.8024
34,501.19,0.0522197,0.000265194,0.0522204,0.29097,82.5354
35,398.11,0.0524972,0.000654857,0.0525013,0.714678,84.262
36,316.23,0.0528121,0.000967876,0.052821,1.04993,86.009
37,251.19,0.0531577,0.0012168,0.0531717,1.31129,87.7597
38,199.53,0.0534486,0.00141286,0.0534673,1.5142,89.4964
39,158.49,0.0537753,0.00156907,0.0537982,1.67132,91.3026
40,125.89,0.0540982,0.00169528,0.0541248,1.7949,93.101
41,100,0.0544246,0.00181017,0.0544547,1.90496,94.8976
42,79.433,0.054702,0.00189899,0.054735,1.98823,96.7148
43,63.096,0.0549245,0.00199331,0.0549606,2.07846,98.6033
44,50.119,0.0552057,0.00210903,0.055246,2.18781,100.683
45,39.811,0.0554321,0.00225232,0.0554778,2.32677,102.637
46,31.623,0.0557226,0.00244273,0.0557761,2.51009,104.711
47,25.119,0.0559974,0.00267854,0.0560615,2.73856,106.781
48,19.953,0.0563159,0.00294938,0.0563931,2.99796,109.077
49,15.849,0.056712,0.00328084,0.0568069,3.31092,111.465
50,12.589,0.0571549,0.00364849,0.0572713,3.65252,113.966
51,10,0.0577146,0.00404806,0.0578564,4.01211,116.683
52,7.9433,0.0583386,0.00445498,0.0585084,4.36688,119.398
53,6.3096,0.059097,0.00485175,0.0592958,4.69335,122.223
54,5.0119,0.0599185,0.00520624,0.0601443,4.96588,125.012
55,3.9811,0.0608187,0.00550346,0.0610672,5.17059,127.823
56,3.1623,0.0617883,0.00572591,0.0620531,5.29447,130.784
57,2.5119,0.0627783,0.00586135,0.0630513,5.334,133.791
58,1.9953,0.0637601,0.00591348,0.0640337,5.29878,136.932
59,1.5849,0.0647515,0.00590329,0.06502,5.20917,140.13
60,1.2589,0.0656457,0.00583634,0.0659047,5.08061,143.462
61,1,0.0665503,0.00574293,0.0667976,4.9321,147.204
62,0.79433,0.0673286,0.0056473,0.067565,4.79456,150.852
63,0.63096,0.0681305,0.00558251,0.0683588,4.68426,154.741
64,0.50119,0.0687703,0.00553127,0.0689924,4.59846,159.005
65,0.39811,0.0695118,0.00558884,0.0697361,4.59677,163.631
66,0.31623,0.0701379,0.00570476,0.0703696,4.64999,168.847
67,0.25119,0.070789,0.00583609,0.0710291,4.713,174.723
68,0.19953,0.0713761,0.00616261,0.0716417,4.93468,181.405
69,0.15849,0.0720437,0.00658266,0.0723438,5.22065,189.096
70,0.12589,0.0726585,0.007045,0.0729993,5.53811,198.042
71,0.1,0.0732498,0.00771728,0.0736552,6.01424,208.644