File: tutorials/data/eis/LCO_2_Pristine_25C.txt
Index,Frequency (Hz),Z' (Ω),-Z'' (Ω),Z (Ω),-Phase (°),Time (s)
1,1000000,1.32685,-1.47299,1.98248,-47.988,14.4374
2,794330,0.956345,-1.34948,1.65399,-54.6757,17.7853
3,630960,0.701642,-1.17652,1.36986,-59.1894,21.0982
4,501190,0.512134,-1.00292,1.12611,-62.9492,24.443
5,398110,0.378918,-0.842189,0.923505,-65.7761,29.0503
6,316230,0.285384,-0.698839,0.754864,-67.7865,32.1407
7,251190,0.218932,-0.575676,0.615901,-69.178,35.2539
8,199530,0.174454,-0.473348,0.504472,-69.7685,36.9844
9,158490,0.141184,-0.388343,0.413211,-70.021,38.8106
10,125890,0.116854,-0.318161,0.338941,-69.8328,40.5622
11,100000,0.0986355,-0.260102,0.278176,-69.2323,43.879
12,79433,0.0850601,-0.212233,0.228644,-68.1598,45.508
13,63096,0.0748557,-0.172722,0.188245,-66.5687,47.3575
14,50119,0.0672289,-0.140173,0.155461,-64.3769,49.1847
15,39811,0.0616351,-0.113538,0.129189,-61.5043,51.0179
16,31623,0.0575355,-0.0916717,0.108231,-57.8865,52.7653
17,25119,0.0543099,-0.0735541,0.0914318,-53.5591,54.5973
18,19953,0.0521964,-0.0591108,0.0788578,-48.5547,56.4193
19,15849,0.050689,-0.0473861,0.0693889,-43.0711,58.2557
20,12589,0.0496619,-0.0379211,0.0624846,-37.3648,60.0054
21,10000,0.0488553,-0.0302274,0.0574503,-31.7456,63.1419
22,7943.3,0.0483386,-0.0239876,0.0539631,-26.3925,64.7668
23,6309.6,0.0480846,-0.0189857,0.051697,-21.5461,66.5073
24,5011.9,0.0476881,-0.0148584,0.0499492,-17.3057,68.3206
25,3981.1,0.0476478,-0.0116103,0.0490419,-13.6944,70.0477
26,3162.3,0.0476605,-0.00898294,0.0484996,-10.6738,71.762
27,2511.9,0.0477101,-0.00685301,0.0481998,-8.17397,73.5078
28,1995.3,0.0478346,-0.00511232,0.048107,-6.10033,75.244
29,1584.9,0.0479518,-0.00368941,0.0480935,-4.39966,76.9355
30,1258.9,0.0481314,-0.00253888,0.0481983,-3.01949,78.674
31,1000,0.0484691,-0.00153996,0.0484935,-1.81978,80.3906
32,794.33,0.0487183,-0.000802005,0.0487249,-0.943123,82.2172
33,630.96,0.0487786,-0.000213442,0.0487791,-0.250709,83.9229
34,501.19,0.0490785,0.000260313,0.0490792,0.303894,85.6786
35,398.11,0.0493662,0.000638268,0.0493703,0.740751,87.3893
36,316.23,0.0496786,0.000938214,0.0496875,1.08194,89.1061
37,251.19,0.0499945,0.00117685,0.0500083,1.34848,90.8779
38,199.53,0.0503195,0.00136148,0.0503379,1.54985,92.6104
39,158.49,0.0506436,0.00150842,0.050666,1.70605,94.3617
40,125.89,0.0509448,0.00162676,0.0509707,1.82894,96.1596
41,100,0.0512359,0.00173362,0.0512652,1.93792,97.9709
42,79.433,0.0515002,0.0018218,0.0515324,2.02597,99.7839
43,63.096,0.0517577,0.0019191,0.0517933,2.12348,101.653
44,50.119,0.0519906,0.00203517,0.0520304,2.24169,103.777
45,39.811,0.0522446,0.00218773,0.0522904,2.39785,105.727
46,31.623,0.0525105,0.00238273,0.0525646,2.59808,107.781
47,25.119,0.0527798,0.00262121,0.0528448,2.84315,109.854
48,19.953,0.0531082,0.00289742,0.0531872,3.12278,112.17
49,15.849,0.0535007,0.00322648,0.0535979,3.45117,114.536
50,12.589,0.0539587,0.00359487,0.0540784,3.81156,117.035
51,10,0.0544923,0.00398374,0.0546377,4.18126,119.726
52,7.9433,0.0551194,0.00437475,0.0552927,4.53797,122.46
53,6.3096,0.0558379,0.00475568,0.0560401,4.8681,125.28
54,5.0119,0.056676,0.00509017,0.0569041,5.13207,128.135
55,3.9811,0.0575622,0.00536752,0.0578119,5.32727,131.008
56,3.1623,0.0584704,0.00555678,0.0587339,5.42884,133.944
57,2.5119,0.0594821,0.00568173,0.0597528,5.45634,137
58,1.9953,0.0604171,0.00571954,0.0606872,5.40794,140.083
59,1.5849,0.0613652,0.00569436,0.0616289,5.30156,143.252
60,1.2589,0.0622335,0.00562451,0.0624872,5.16422,146.547
61,1,0.0630535,0.00551907,0.0632946,5.00234,150.219
62,0.79433,0.0638523,0.00543496,0.0640832,4.86515,153.898
63,0.63096,0.0646243,0.00536474,0.0648466,4.74549,157.777
64,0.50119,0.0652328,0.00535032,0.0654519,4.68884,162.027
65,0.39811,0.0659008,0.00535477,0.066118,4.64536,166.718
66,0.31623,0.0665225,0.00546067,0.0667463,4.69274,171.91
67,0.25119,0.0671013,0.00566639,0.0673401,4.8269,177.709
68,0.19953,0.0677269,0.00590203,0.0679836,4.98044,184.323
69,0.15849,0.068329,0.00629884,0.0686187,5.26687,192.013
70,0.12589,0.0688921,0.00683285,0.0692301,5.66418,200.963
71,0.1,0.0695835,0.00758798,0.069996,6.22342,211.57