File: tutorials/data/eis/LCO_2_Pristine_45C.txt
Index,Frequency (Hz),Z' (Ω),-Z'' (Ω),Z (Ω),-Phase (°),Time (s)
1,1000000,1.41811,-1.61213,2.1471,-48.6635,19.121
2,794330,1.01322,-1.47317,1.78797,-55.4804,22.4475
3,630960,0.734308,-1.28449,1.47957,-60.2447,25.7556
4,501190,0.526785,-1.09334,1.21363,-64.2747,29.0811
5,398110,0.38128,-0.914181,0.990506,-67.3603,32.2975
6,316230,0.28043,-0.75456,0.804986,-69.6125,36.7039
7,251190,0.210182,-0.616438,0.651285,-71.1726,38.344
8,199530,0.16489,-0.502898,0.52924,-71.8468,40.1888
9,158490,0.132392,-0.408676,0.429585,-72.0501,41.9907
10,125890,0.109656,-0.331587,0.349249,-71.7009,43.7016
11,100000,0.0935945,-0.268874,0.284698,-70.8071,46.971
12,79433,0.0819094,-0.217771,0.232666,-69.3874,48.5954
13,63096,0.0733561,-0.176257,0.190912,-67.4035,50.4076
14,50119,0.0670026,-0.142623,0.157578,-64.8364,52.2896
15,39811,0.0622717,-0.115285,0.131028,-61.6241,54.0251
16,31623,0.0587397,-0.0930416,0.110032,-57.7347,55.7403
17,25119,0.055852,-0.0746751,0.0932514,-53.2059,57.5483
18,19953,0.0539539,-0.0600615,0.0807366,-48.0663,59.4223
19,15849,0.0525878,-0.048236,0.0713595,-42.5285,61.2389
20,12589,0.0515561,-0.0386416,0.0644298,-36.8518,63.0466
21,10000,0.0507692,-0.0308731,0.0594193,-31.3041,66.2296
22,7943.3,0.0502795,-0.0246062,0.0559776,-26.0765,67.8655
23,6309.6,0.049975,-0.0195657,0.0536686,-21.3808,69.5831
24,5011.9,0.0495099,-0.0154283,0.0518581,-17.3081,71.4609
25,3981.1,0.0494345,-0.0121926,0.0509159,-13.855,73.1709
26,3162.3,0.0493944,-0.00958713,0.0503162,-10.9842,74.8683
27,2511.9,0.0493621,-0.00748423,0.0499262,-8.62147,76.6858
28,1995.3,0.0494086,-0.0057833,0.049746,-6.67611,78.4306
29,1584.9,0.0494493,-0.00440921,0.0496455,-5.09538,80.017
30,1258.9,0.0495095,-0.0033091,0.0496199,-3.82384,81.7129
31,1000,0.04973,-0.00236517,0.0497862,-2.72295,83.4529
32,794.33,0.0498565,-0.00167545,0.0498846,-1.92472,85.2708
33,630.96,0.0497601,-0.0011307,0.0497729,-1.3017,86.9733
34,501.19,0.049909,-0.000698668,0.0499139,-0.802022,88.7054
35,398.11,0.0500499,-0.000359478,0.0500512,-0.411514,90.4474
36,316.23,0.0502351,-8.95064e-05,0.0502352,-0.102087,92.169
37,251.19,0.0503668,0.00012311,0.0503669,0.140046,93.9205
38,199.53,0.0505157,0.000293667,0.0505166,0.333078,95.6422
39,158.49,0.0506722,0.000439726,0.0506741,0.497192,97.4154
40,125.89,0.0508182,0.000564475,0.0508213,0.6364,99.1973
41,100,0.0509721,0.000690235,0.0509768,0.775819,100.968
42,79.433,0.0511071,0.000790962,0.0511133,0.88667,102.823
43,63.096,0.051261,0.000890879,0.0512687,0.995659,104.685
44,50.119,0.051379,0.000987922,0.0513885,1.10156,106.758
45,39.811,0.0515526,0.00108048,0.0515639,1.20068,108.704
46,31.623,0.0517519,0.00116829,0.0517651,1.29322,110.748
47,25.119,0.0519497,0.00124223,0.0519645,1.3698,112.813
48,19.953,0.0521312,0.00128935,0.0521471,1.4168,115.114
49,15.849,0.0523752,0.00132495,0.0523919,1.44912,117.456
50,12.589,0.0526149,0.00134412,0.0526321,1.46338,119.915
51,10,0.0528308,0.00134713,0.052848,1.46066,122.641
52,7.9433,0.0530415,0.00133634,0.0530583,1.44322,125.35
53,6.3096,0.0532169,0.00131844,0.0532332,1.4192,128.164
54,5.0119,0.0534443,0.00129999,0.0534601,1.3934,130.939
55,3.9811,0.0536047,0.00128216,0.0536201,1.37018,133.744
56,3.1623,0.0537504,0.00127368,0.0537655,1.35744,136.703
57,2.5119,0.0538746,0.00127778,0.0538897,1.35867,139.696
58,1.9953,0.054045,0.00129735,0.0540606,1.37512,142.817
59,1.5849,0.0541672,0.00133514,0.0541837,1.41197,146.001
60,1.2589,0.0543116,0.0014004,0.0543297,1.47701,149.323
61,1,0.0544434,0.00148484,0.0544636,1.56225,152.971
62,0.79433,0.0546148,0.00159789,0.0546382,1.67585,156.608
63,0.63096,0.0547695,0.00174902,0.0547974,1.82907,160.523
64,0.50119,0.0549386,0.00196009,0.0549735,2.04332,164.79
65,0.39811,0.0551275,0.00218138,0.0551706,2.26599,169.467
66,0.31623,0.0553221,0.00244471,0.0553761,2.53029,174.66
67,0.25119,0.0555737,0.00279434,0.0556439,2.8785,180.512
68,0.19953,0.0558569,0.00310367,0.0559431,3.18035,187.134
69,0.15849,0.0560764,0.00355501,0.056189,3.62746,194.842
70,0.12589,0.0563696,0.00408207,0.0565172,4.1419,203.823
71,0.1,0.0567809,0.00467504,0.056973,4.70681,214.394