File: tutorials/data/eis/LCO_3_Pristine_45C.txt
Index,Frequency (Hz),Z' (Ω),-Z'' (Ω),Z (Ω),-Phase (°),Time (s)
1,1000000,1.43653,-1.62672,2.17021,-48.5527,19.1285
2,794330,1.02637,-1.48738,1.80714,-55.3922,20.9599
3,630960,0.744768,-1.29794,1.49644,-60.1524,24.3938
4,501190,0.534493,-1.10496,1.22744,-64.1859,27.7026
5,398110,0.386769,-0.924475,1.00212,-67.2972,33.7293
6,316230,0.284512,-0.762455,0.813809,-69.5368,36.8292
7,251190,0.213575,-0.623217,0.658797,-71.0836,39.9464
8,199530,0.167667,-0.507634,0.534607,-71.7221,41.6674
9,158490,0.134974,-0.412345,0.433873,-71.875,43.5027
10,125890,0.112271,-0.334155,0.352511,-71.4285,45.2176
11,100000,0.0962551,-0.270587,0.287197,-70.4181,48.5203
12,79433,0.0848233,-0.218819,0.234685,-68.8116,50.2822
13,63096,0.076529,-0.176933,0.192774,-66.61,52.084
14,50119,0.0703518,-0.142805,0.159194,-63.7732,53.9021
15,39811,0.0658671,-0.115317,0.132802,-60.2657,55.7348
16,31623,0.0625143,-0.0929648,0.112029,-56.0811,57.4916
17,25119,0.060028,-0.0748693,0.0959623,-51.2784,59.3024
18,19953,0.0578691,-0.0599046,0.083291,-45.9902,61.12
19,15849,0.0565353,-0.0480809,0.074216,-40.3798,62.929
20,12589,0.0555352,-0.0384944,0.0675721,-34.7279,64.6651
21,10000,0.0548465,-0.0307525,0.0628797,-29.2794,67.8964
22,7943.3,0.0543809,-0.0244923,0.0596419,-24.2461,69.5729
23,6309.6,0.0540963,-0.0194748,0.057495,-19.799,71.2897
24,5011.9,0.0536469,-0.0153598,0.0558025,-15.9771,73.0195
25,3981.1,0.053564,-0.0121322,0.0549208,-12.7621,74.7313
26,3162.3,0.0535482,-0.00954297,0.0543919,-10.1048,76.4544
27,2511.9,0.0534967,-0.00744122,0.0540118,-7.91884,78.1684
28,1995.3,0.053504,-0.00574473,0.0538115,-6.12838,79.893
29,1584.9,0.0535363,-0.00437949,0.0537151,-4.67662,81.5849
30,1258.9,0.0536297,-0.00328728,0.0537303,-3.50761,83.2808
31,1000,0.0538887,-0.00236512,0.0539405,-2.51304,85.0065
32,794.33,0.0540314,-0.00167792,0.0540574,-1.77872,86.8337
33,630.96,0.0539332,-0.00113144,0.053945,-1.2018,88.5993
34,501.19,0.0540429,-0.000698512,0.0540474,-0.740515,90.3361
35,398.11,0.0541761,-0.000359411,0.0541773,-0.380102,92.0487
36,316.23,0.0543014,-8.84673e-05,0.0543015,-0.0933456,93.7699
37,251.19,0.054449,0.000124402,0.0544491,0.130906,95.5366
38,199.53,0.0545817,0.000295699,0.0545825,0.310399,97.2728
39,158.49,0.0547208,0.000442129,0.0547226,0.462924,99.0163
40,125.89,0.0548196,0.00056901,0.0548225,0.594691,100.813
41,100,0.054969,0.000693528,0.0549734,0.722846,102.584
42,79.433,0.0550774,0.000795597,0.0550832,0.827584,104.402
43,63.096,0.055225,0.000896395,0.0552323,0.929926,106.264
44,50.119,0.0553667,0.000993016,0.0553756,1.0275,108.371
45,39.811,0.0555287,0.00108937,0.0555394,1.1239,110.326
46,31.623,0.0556975,0.00117641,0.0557099,1.20999,112.354
47,25.119,0.0559139,0.0012565,0.055928,1.28734,114.461
48,19.953,0.0561157,0.00130497,0.0561308,1.33217,116.749
49,15.849,0.0563596,0.00134549,0.0563757,1.36758,119.117
50,12.589,0.0565926,0.0013686,0.0566091,1.38534,121.606
51,10,0.0567794,0.00137336,0.056796,1.38558,124.301
52,7.9433,0.0570069,0.00136357,0.0570232,1.37022,127.033
53,6.3096,0.0571945,0.00134868,0.0572104,1.35082,129.857
54,5.0119,0.0574236,0.00133112,0.057439,1.32792,132.648
55,3.9811,0.0576034,0.0013095,0.0576183,1.30228,135.473
56,3.1623,0.0577722,0.0012979,0.0577867,1.28698,138.335
57,2.5119,0.0579339,0.0013038,0.0579486,1.28922,141.271
58,1.9953,0.0580625,0.00131844,0.0580775,1.30081,144.339
59,1.5849,0.0581538,0.00135346,0.0581695,1.33326,147.545
60,1.2589,0.0583445,0.00140888,0.0583615,1.38329,150.859
61,1,0.0584349,0.00149157,0.0584539,1.46217,154.51
62,0.79433,0.0586095,0.00160055,0.0586314,1.56429,158.172
63,0.63096,0.0587397,0.00175033,0.0587658,1.70679,162.042
64,0.50119,0.0589336,0.00193395,0.0589654,1.87952,166.302
65,0.39811,0.0591087,0.00217021,0.0591485,2.1027,170.974
66,0.31623,0.0593494,0.00243942,0.0593995,2.35369,176.154
67,0.25119,0.0596363,0.00271688,0.0596982,2.60844,181.978
68,0.19953,0.0598283,0.00308088,0.0599076,2.94787,188.596
69,0.15849,0.0601137,0.00352459,0.060217,3.35553,196.267
70,0.12589,0.0604331,0.00399232,0.0605649,3.77957,205.201
71,0.1,0.0607112,0.00457781,0.0608836,4.31211,215.811