File: tutorials/data/eis/LCO_3_Pristine_25C.txt
Index,Frequency (Hz),Z' (Ω),-Z'' (Ω),Z (Ω),-Phase (°),Time (s)
1,1000000,1.3366,-1.46141,1.98046,-47.554,98.3465
2,794330,0.966796,-1.34112,1.65327,-54.2126,100.198
3,630960,0.711657,-1.17037,1.36975,-58.6978,102.026
4,501190,0.522369,-1.0011,1.12919,-62.4448,108.26
5,398110,0.388002,-0.841726,0.926849,-65.2522,112.887
6,316230,0.293249,-0.699469,0.758454,-67.2544,116.032
7,251190,0.225557,-0.576855,0.619385,-68.6439,119.198
8,199530,0.18008,-0.47514,0.508121,-69.2431,120.934
9,158490,0.145964,-0.390263,0.416666,-69.4934,122.751
10,125890,0.120968,-0.31985,0.341961,-69.2832,124.458
11,100000,0.102365,-0.261506,0.280827,-68.6225,127.818
12,79433,0.0885486,-0.213287,0.230938,-67.4536,129.444
13,63096,0.07822,-0.173474,0.190293,-65.7292,131.255
14,50119,0.0705422,-0.140767,0.157453,-63.3832,133.103
15,39811,0.0649234,-0.114022,0.13121,-60.3431,134.936
16,31623,0.0608074,-0.0921154,0.110376,-56.5703,136.754
17,25119,0.0578428,-0.0742468,0.0941189,-52.0792,138.621
18,19953,0.0554183,-0.0594391,0.0812662,-47.0049,140.343
19,15849,0.0538885,-0.0476616,0.0719416,-41.4911,142.08
20,12589,0.0528212,-0.0381373,0.0651501,-35.8295,143.801
21,10000,0.0519667,-0.0303903,0.0602006,-30.3192,146.971
22,7943.3,0.05148,-0.0241442,0.0568606,-25.1267,148.621
23,6309.6,0.0512157,-0.019122,0.054669,-20.4737,150.336
24,5011.9,0.050789,-0.014981,0.0529523,-16.4342,152.165
25,3981.1,0.0507227,-0.0117164,0.0520583,-13.0065,153.882
26,3162.3,0.050768,-0.00908455,0.0515744,-10.1453,155.592
27,2511.9,0.0507862,-0.00693481,0.0512575,-7.77559,157.414
28,1995.3,0.050877,-0.00518186,0.0511402,-5.81556,159.156
29,1584.9,0.0510105,-0.00375825,0.0511487,-4.21371,160.842
30,1258.9,0.0512005,-0.0026026,0.0512666,-2.90993,162.538
31,1000,0.051485,-0.00159861,0.0515098,-1.77847,164.279
32,794.33,0.0517605,-0.000856066,0.0517675,-0.947528,166.096
33,630.96,0.0517883,-0.000264746,0.051789,-0.292898,167.809
34,501.19,0.0520926,0.000213652,0.052093,0.234991,169.549
35,398.11,0.0523772,0.000596062,0.0523806,0.652008,171.277
36,316.23,0.0526807,0.000900282,0.0526884,0.979055,173.004
37,251.19,0.052959,0.00114108,0.0529713,1.23434,174.77
38,199.53,0.0532951,0.00133112,0.0533117,1.43074,176.513
39,158.49,0.0536314,0.0014817,0.0536519,1.58254,178.272
40,125.89,0.0539057,0.00160336,0.0539295,1.70369,180.068
41,100,0.0541866,0.00171575,0.0542138,1.81359,181.755
42,79.433,0.0544572,0.00180687,0.0544872,1.90035,183.625
43,63.096,0.0546894,0.00190568,0.0547226,1.99569,185.511
44,50.119,0.0549235,0.00202755,0.0549609,2.11416,187.597
45,39.811,0.0551668,0.00218298,0.05521,2.26604,189.577
46,31.623,0.0554307,0.00238116,0.0554819,2.45977,191.596
47,25.119,0.0557129,0.00262532,0.0557747,2.69792,193.666
48,19.953,0.0560356,0.00290623,0.0561109,2.96893,195.981
49,15.849,0.0564441,0.00324495,0.0565373,3.29029,198.32
50,12.589,0.0568954,0.00361749,0.0570103,3.63805,200.784
51,10,0.0574287,0.00401548,0.0575689,3.99968,203.528
52,7.9433,0.0580785,0.00442365,0.0582467,4.35562,206.238
53,6.3096,0.0587856,0.00481163,0.0589822,4.67925,209.045
54,5.0119,0.0595944,0.00516422,0.0598177,4.95267,211.831
55,3.9811,0.0605043,0.00545447,0.0607496,5.1513,214.646
56,3.1623,0.0614246,0.00566921,0.0616857,5.2732,217.595
57,2.5119,0.0624404,0.00580359,0.0627095,5.31016,220.6
58,1.9953,0.0634188,0.00586017,0.063689,5.27938,223.704
59,1.5849,0.0643576,0.0058423,0.0646223,5.18701,226.861
60,1.2589,0.0652739,0.00577983,0.0655293,5.06019,230.168
61,1,0.0661503,0.00569704,0.0663951,4.92232,233.862
62,0.79433,0.0669714,0.00560011,0.0672051,4.77992,237.506
63,0.63096,0.0677128,0.00552314,0.0679377,4.66312,241.408
64,0.50119,0.0684142,0.00548925,0.068634,4.58733,245.639
65,0.39811,0.0690719,0.00554169,0.0692939,4.58706,250.325
66,0.31623,0.0696976,0.00563245,0.0699249,4.62018,255.536
67,0.25119,0.0704023,0.00582167,0.0706426,4.72712,261.404
68,0.19953,0.0709023,0.00605679,0.0711606,4.88261,268.012
69,0.15849,0.0715561,0.00646738,0.0718478,5.16447,275.71
70,0.12589,0.0722249,0.00696012,0.0725595,5.50444,284.707
71,0.1,0.0729509,0.00750622,0.0733361,5.87473,295.294