File: tutorials/data/eis/LCO_2_Pristine_5C.txt
Index,Frequency (Hz),Z' (Ω),-Z'' (Ω),Z (Ω),-Phase (°),Time (s)
1,1000000,1.33034,-1.51591,2.01687,-48.7304,14.3967
2,794330,0.954122,-1.38242,1.67971,-55.3872,16.3032
3,630960,0.695799,-1.19823,1.3856,-59.8568,18.1288
4,501190,0.505704,-1.0178,1.13651,-63.5791,24.31
5,398110,0.37283,-0.850015,0.928185,-66.317,28.9572
6,316230,0.2807,-0.700963,0.755077,-68.1764,32.0708
7,251190,0.216558,-0.573087,0.612639,-69.2994,35.2262
8,199530,0.175036,-0.467413,0.499111,-69.4701,36.9603
9,158490,0.145041,-0.380186,0.406913,-69.1181,38.7668
10,125890,0.123938,-0.308913,0.332848,-68.139,40.478
11,100000,0.108651,-0.250614,0.273153,-66.5614,43.8049
12,79433,0.0976854,-0.203412,0.225652,-64.3481,45.4643
13,63096,0.0893873,-0.164634,0.187335,-61.5004,47.2897
14,50119,0.0832674,-0.133153,0.157045,-57.9802,49.1353
15,39811,0.0787607,-0.107559,0.133313,-53.7865,50.9618
16,31623,0.0753936,-0.0866337,0.114846,-48.9683,52.6911
17,25119,0.0730016,-0.069673,0.100914,-43.6635,54.5606
18,19953,0.0708591,-0.0556111,0.0900755,-38.1253,56.2899
19,15849,0.0696272,-0.0444726,0.0826181,-32.5674,58.1246
20,12589,0.0687563,-0.0354435,0.0773542,-27.2708,59.8437
21,10000,0.0681971,-0.0281558,0.0737807,-22.4338,62.9848
22,7943.3,0.0678273,-0.022206,0.0713699,-18.128,64.6106
23,6309.6,0.0676598,-0.0173974,0.0698607,-14.4201,66.3446
24,5011.9,0.0672653,-0.01343,0.0685929,-11.2911,68.0912
25,3981.1,0.0673277,-0.010278,0.0681077,-8.67958,69.7921
26,3162.3,0.067439,-0.00769437,0.0678766,-6.50894,71.5005
27,2511.9,0.0675302,-0.0055568,0.0677584,-4.70405,73.3061
28,1995.3,0.0677253,-0.00379417,0.0678315,-3.20652,75.0476
29,1584.9,0.0679827,-0.00232744,0.0680225,-1.9608,76.7169
30,1258.9,0.0682392,-0.00109584,0.068248,-0.920021,78.4623
31,1000,0.0687868,-9.78513e-06,0.0687868,-0.00815049,80.2025
32,794.33,0.0692665,0.000868457,0.069272,0.718331,82.0238
33,630.96,0.0694476,0.00161438,0.0694664,1.33166,83.7327
34,501.19,0.0699479,0.0022737,0.0699849,1.86178,85.4616
35,398.11,0.0705316,0.00285022,0.0705891,2.31409,87.1882
36,316.23,0.071164,0.00336143,0.0712434,2.70435,88.9232
37,251.19,0.0718825,0.00381711,0.0719837,3.03967,90.7041
38,199.53,0.0725924,0.00421853,0.0727148,3.32587,92.4307
39,158.49,0.0733305,0.00457688,0.0734732,3.57145,94.1964
40,125.89,0.0741049,0.00489174,0.0742662,3.77667,95.9926
41,100,0.074971,0.00517796,0.0751496,3.95092,97.7739
42,79.433,0.0757799,0.00541418,0.0759731,4.08661,99.6219
43,63.096,0.0766388,0.00562697,0.076845,4.19924,101.475
44,50.119,0.0774838,0.00582967,0.0777028,4.30267,103.552
45,39.811,0.0782888,0.00603298,0.0785209,4.40654,105.496
46,31.623,0.079096,0.0062574,0.0793432,4.52333,107.523
47,25.119,0.0799065,0.00652551,0.0801725,4.66866,109.603
48,19.953,0.0806735,0.0068354,0.0809626,4.84305,111.903
49,15.849,0.0815402,0.0072557,0.0818624,5.08496,114.245
50,12.589,0.0823388,0.00779389,0.0827068,5.4073,116.733
51,10,0.0831592,0.00848355,0.0835908,5.82492,119.455
52,7.9433,0.0840754,0.00935984,0.0845948,6.35239,122.169
53,6.3096,0.0850568,0.0104403,0.0856952,6.99774,125.004
54,5.0119,0.0861641,0.0117564,0.0869624,7.76958,127.789
55,3.9811,0.0875603,0.0133284,0.088569,8.6551,130.609
56,3.1623,0.0891872,0.0151382,0.0904629,9.63329,133.538
57,2.5119,0.0911904,0.0171779,0.0927942,10.668,136.548
58,1.9953,0.0936225,0.0194087,0.0956131,11.712,139.654
59,1.5849,0.0965683,0.0217446,0.0989862,12.6899,142.822
60,1.2589,0.100028,0.0241331,0.102898,13.5642,146.164
61,1,0.104454,0.0265103,0.107766,14.2409,149.819
62,0.79433,0.109122,0.0286096,0.11281,14.6911,153.459
63,0.63096,0.114038,0.0303496,0.118007,14.9031,157.332
64,0.50119,0.119303,0.0318405,0.123479,14.9432,161.605
65,0.39811,0.124743,0.0327718,0.128976,14.7198,166.286
66,0.31623,0.130409,0.0333808,0.134613,14.3577,171.501
67,0.25119,0.135933,0.0339291,0.140104,14.0147,177.343
68,0.19953,0.14136,0.0336295,0.145306,13.3818,183.973
69,0.15849,0.146503,0.0334889,0.150282,12.8759,191.659
70,0.12589,0.151598,0.0334384,0.155242,12.4387,200.61
71,0.1,0.156871,0.0337065,0.160451,12.1266,211.196