File: tutorials/data/eis/LCO_3_Pristine_5C.txt
Index,Frequency (Hz),Z' (Ω),-Z'' (Ω),Z (Ω),-Phase (°),Time (s)
1,1000000,1.30991,-1.49764,1.98967,-48.8256,14.4259
2,794330,0.937456,-1.36772,1.65815,-55.5726,16.2522
3,630960,0.68024,-1.18619,1.3674,-60.1672,19.6625
4,501190,0.491307,-1.00713,1.12058,-63.9956,22.9807
5,398110,0.358935,-0.840106,0.913571,-66.8654,26.2012
6,316230,0.268002,-0.693431,0.743419,-68.8691,30.698
7,251190,0.204297,-0.5662,0.60193,-70.1595,33.8329
8,199530,0.163455,-0.461815,0.489888,-70.5091,35.5512
9,158490,0.133966,-0.375432,0.398618,-70.362,37.3822
10,125890,0.11324,-0.304622,0.32499,-69.6079,39.0835
11,100000,0.0985203,-0.247422,0.266316,-68.2882,42.3962
12,79433,0.0877543,-0.200766,0.219107,-66.39,44.1541
13,63096,0.0797051,-0.162784,0.181249,-63.9118,45.9761
14,50119,0.0736122,-0.131901,0.151052,-60.8347,47.7952
15,39811,0.068962,-0.106688,0.127035,-57.1217,49.6229
16,31623,0.0654846,-0.086131,0.108198,-52.7546,51.3699
17,25119,0.06257,-0.0690537,0.0931848,-47.8201,53.1911
18,19953,0.0606771,-0.0554451,0.0821941,-42.4202,55.0036
19,15849,0.0593709,-0.0444237,0.074151,-36.8053,56.7555
20,12589,0.0583921,-0.0354367,0.0683038,-31.2525,58.5064
21,10000,0.0576978,-0.0281492,0.0641982,-26.0065,61.7237
22,7943.3,0.0572769,-0.022232,0.0614402,-21.2137,63.361
23,6309.6,0.0571362,-0.0174717,0.0597478,-17.0031,65.0869
24,5011.9,0.0567344,-0.0135136,0.0583216,-13.3977,66.8218
25,3981.1,0.0567565,-0.0103734,0.0576967,-10.3576,68.5524
26,3162.3,0.0568501,-0.00781085,0.0573841,-7.82311,70.3054
27,2511.9,0.0569286,-0.00568663,0.0572119,-5.70439,72.1258
28,1995.3,0.0571332,-0.00393071,0.0572682,-3.9357,73.847
29,1584.9,0.0573367,-0.00246389,0.0573896,-2.46062,75.5434
30,1258.9,0.0576033,-0.00123367,0.0576165,-1.2269,77.2606
31,1000,0.0580983,-0.000143121,0.0580985,-0.141144,78.9864
32,794.33,0.0584833,0.000734251,0.0584879,0.719304,80.8219
33,630.96,0.0587342,0.00147757,0.0587528,1.44108,82.5547
34,501.19,0.0592107,0.00213347,0.0592491,2.06358,84.2907
35,398.11,0.0597783,0.00270898,0.0598397,2.5947,85.9953
36,316.23,0.0604036,0.00321841,0.0604893,3.04994,87.7247
37,251.19,0.0610556,0.00366658,0.0611656,3.43666,89.5023
38,199.53,0.0617469,0.00406779,0.0618808,3.76911,91.2311
39,158.49,0.0624707,0.00442313,0.062627,4.04997,92.9868
40,125.89,0.0632385,0.00473669,0.0634157,4.28357,94.788
41,100,0.0640206,0.00501889,0.0642171,4.48253,96.606
42,79.433,0.0648413,0.00525527,0.065054,4.63359,98.4326
43,63.096,0.0656685,0.00546723,0.0658957,4.75918,100.292
44,50.119,0.066449,0.00566528,0.0666901,4.87312,102.411
45,39.811,0.0672434,0.00587338,0.0674994,4.99183,104.369
46,31.623,0.0680004,0.00609699,0.0682732,5.1235,106.41
47,25.119,0.0688028,0.00637154,0.0690972,5.29083,108.5
48,19.953,0.0695656,0.00669259,0.0698868,5.49526,110.784
49,15.849,0.070338,0.0071222,0.0706977,5.78188,113.14
50,12.589,0.071124,0.00768003,0.0715374,6.16297,115.643
51,10,0.0719165,0.00838185,0.0724033,6.64781,118.357
52,7.9433,0.0728276,0.00927704,0.0734161,7.25945,121.067
53,6.3096,0.0738397,0.0103817,0.074566,8.00322,123.891
54,5.0119,0.0749767,0.0117182,0.075887,8.88299,126.689
55,3.9811,0.0763228,0.0132949,0.0774721,9.8814,129.523
56,3.1623,0.0780244,0.015131,0.079478,10.975,132.462
57,2.5119,0.0800527,0.0171936,0.0818783,12.1218,135.491
58,1.9953,0.0824528,0.0194261,0.0847103,13.2572,138.562
59,1.5849,0.0854537,0.0217833,0.0881864,14.3009,141.703
60,1.2589,0.0889255,0.0241464,0.0921455,15.1915,145.02
61,1,0.0929591,0.0264346,0.0966446,15.874,148.715
62,0.79433,0.0974592,0.0285074,0.101543,16.3045,152.368
63,0.63096,0.102899,0.0304607,0.107313,16.4901,156.256
64,0.50119,0.108173,0.0318477,0.112764,16.4052,160.544
65,0.39811,0.113783,0.0329938,0.118471,16.1706,165.159
66,0.31623,0.119452,0.0337457,0.124127,15.7752,170.308
67,0.25119,0.125026,0.0339498,0.129553,15.1919,176.097
68,0.19953,0.130634,0.034039,0.134996,14.6047,182.705
69,0.15849,0.136269,0.0342029,0.140496,14.0899,190.426
70,0.12589,0.141131,0.033882,0.145142,13.4997,199.387
71,0.1,0.14613,0.0341037,0.150056,13.1366,209.998