File: tutorials/data/eis/LCO_2_Pristine_35C.txt
Index,Frequency (Hz),Z' (Ω),-Z'' (Ω),Z (Ω),-Phase (°),Time (s)
1,1000000,1.33092,-1.49399,2.00084,-48.3038,19.023
2,794330,0.954204,-1.36727,1.66732,-55.0893,22.3296
3,630960,0.6953,-1.1912,1.37928,-59.728,25.6763
4,501190,0.503092,-1.01442,1.13232,-63.6213,28.9961
5,398110,0.367859,-0.84814,0.924479,-66.5525,32.2479
6,316230,0.274399,-0.70088,0.75268,-68.6193,36.6871
7,251190,0.208927,-0.572865,0.609774,-69.9628,38.323
8,199530,0.166744,-0.467869,0.496694,-70.3844,40.1258
9,158490,0.136326,-0.38078,0.404447,-70.3018,41.9328
10,125890,0.114953,-0.309475,0.330135,-69.6228,43.65
11,100000,0.099598,-0.251526,0.270528,-68.3977,46.8511
12,79433,0.0883761,-0.20442,0.222706,-66.6199,48.4721
13,63096,0.0799207,-0.166157,0.184379,-64.3127,50.3103
14,50119,0.0734542,-0.135056,0.153739,-61.4591,52.1325
15,39811,0.0684189,-0.109591,0.129195,-58.0231,53.945
16,31623,0.0645559,-0.0887714,0.109763,-53.9748,55.6817
17,25119,0.061346,-0.0714622,0.0941816,-49.3559,57.5029
18,19953,0.0591762,-0.0575967,0.0825785,-44.2251,59.3153
19,15849,0.0575859,-0.0462868,0.0738823,-38.7919,61.0418
20,12589,0.0564867,-0.0371225,0.0675931,-33.3125,62.7957
21,10000,0.0556402,-0.0296344,0.06304,-28.0401,65.9103
22,7943.3,0.0551358,-0.0235911,0.0599708,-23.1647,67.534
23,6309.6,0.0548105,-0.01871,0.0579159,-18.8477,69.2981
24,5011.9,0.0543317,-0.0146997,0.0562851,-15.1392,71.0241
25,3981.1,0.0542951,-0.0115602,0.0555121,-12.0197,72.7341
26,3162.3,0.0542734,-0.00902129,0.0550181,-9.43738,74.4603
27,2511.9,0.0543299,-0.00697055,0.0547753,-7.31112,76.1872
28,1995.3,0.0543341,-0.0053003,0.054592,-5.57159,77.9177
29,1584.9,0.054452,-0.00396245,0.054596,-4.16205,79.5841
30,1258.9,0.0545446,-0.00288472,0.0546208,-3.02741,81.3231
31,1000,0.054835,-0.00197343,0.0548705,-2.06109,83.0475
32,794.33,0.0550202,-0.00129765,0.0550355,-1.35107,84.8492
33,630.96,0.054969,-0.000762135,0.0549743,-0.794343,86.6054
34,501.19,0.0551465,-0.000334923,0.0551475,-0.347972,88.3633
35,398.11,0.0553415,2.25115e-06,0.0553415,0.00233064,90.0654
36,316.23,0.055539,0.000269232,0.0555396,0.277747,91.7882
37,251.19,0.0557354,0.000479564,0.0557375,0.492977,93.5547
38,199.53,0.0559687,0.0006475,0.0559724,0.662824,95.2719
39,158.49,0.0562109,0.000783139,0.0562164,0.798202,97.0185
40,125.89,0.0564069,0.000902007,0.0564141,0.916143,98.835
41,100,0.0565943,0.00101871,0.0566035,1.03123,100.646
42,79.433,0.0567696,0.00111998,0.0567806,1.13021,102.458
43,63.096,0.0569491,0.00123146,0.0569625,1.23876,104.329
44,50.119,0.0571288,0.00135267,0.0571448,1.35637,106.445
45,39.811,0.0572667,0.00149189,0.0572861,1.49231,108.393
46,31.623,0.0574986,0.00164448,0.0575221,1.63824,110.426
47,25.119,0.0577484,0.00180815,0.0577767,1.79339,112.501
48,19.953,0.0580565,0.00196171,0.0580897,1.93527,114.803
49,15.849,0.0583731,0.00211269,0.0584113,2.0728,117.155
50,12.589,0.0587621,0.00225575,0.0588054,2.19838,119.647
51,10,0.059158,0.00236494,0.0592053,2.28927,122.34
52,7.9433,0.0595397,0.0024456,0.0595899,2.35211,125.055
53,6.3096,0.0601224,0.00249181,0.060174,2.3733,127.876
54,5.0119,0.0604951,0.00250855,0.0605471,2.37452,130.651
55,3.9811,0.0608993,0.00250022,0.0609506,2.35096,133.523
56,3.1623,0.0613132,0.00247248,0.0613631,2.30922,136.425
57,2.5119,0.0616351,0.00243732,0.0616833,2.26454,139.412
58,1.9953,0.061994,0.0024075,0.0620407,2.22393,142.495
59,1.5849,0.0623262,0.00238024,0.0623716,2.18706,145.705
60,1.2589,0.0626222,0.00237582,0.0626673,2.1727,149.019
61,1,0.0629158,0.00239569,0.0629614,2.18064,152.699
62,0.79433,0.0632062,0.00244367,0.0632534,2.21405,156.337
63,0.63096,0.0634335,0.00253816,0.0634842,2.29135,160.212
64,0.50119,0.0637016,0.00270667,0.0637591,2.43302,164.496
65,0.39811,0.0639803,0.00289681,0.0640458,2.59239,169.176
66,0.31623,0.0642915,0.00314721,0.0643685,2.80252,174.367
67,0.25119,0.0646102,0.00350006,0.064705,3.10079,180.234
68,0.19953,0.0649621,0.00381546,0.0650741,3.36133,186.902
69,0.15849,0.0652785,0.00429711,0.0654198,3.76619,194.578
70,0.12589,0.0656996,0.00486086,0.0658791,4.23138,203.587
71,0.1,0.0662278,0.00549871,0.0664557,4.74623,214.188