File: tutorials/data/eis/LFP_2_Pristine_45C.txt
Index,Frequency (Hz),Z' (Ω),-Z'' (Ω),Z (Ω),-Phase (°),Time (s)
1,1000000,1.23627,-1.47026,1.92095,-49.9411,14.4378
2,794330,0.879903,-1.32646,1.59177,-56.4418,16.2819
3,630960,0.638574,-1.14463,1.31071,-60.8435,18.127
4,501190,0.462384,-0.967355,1.07218,-64.4528,21.5098
5,398110,0.3392,-0.803515,0.872178,-67.1132,26.1116
6,316230,0.255676,-0.659663,0.707478,-68.8144,29.215
7,251190,0.198131,-0.536535,0.571949,-69.7318,32.3463
8,199530,0.161486,-0.435499,0.464475,-69.6549,34.0689
9,158490,0.135407,-0.352137,0.377274,-68.9668,35.8921
10,125890,0.117827,-0.284282,0.307733,-67.4873,37.6057
11,100000,0.105137,-0.229598,0.252525,-65.396,40.8274
12,79433,0.0962482,-0.185177,0.208696,-62.5362,42.5913
13,63096,0.0901268,-0.149346,0.174434,-58.89,44.4041
14,50119,0.0855211,-0.120547,0.147802,-54.6464,46.216
15,39811,0.082023,-0.0972911,0.127253,-49.8668,48.0294
16,31623,0.079211,-0.0784814,0.111507,-44.7349,49.7825
17,25119,0.0771762,-0.0632792,0.0998019,-39.3494,51.5153
18,19953,0.0751967,-0.0507251,0.090706,-34.0023,53.3361
19,15849,0.0739293,-0.0407346,0.0844089,-28.8545,55.2043
20,12589,0.0727484,-0.0326193,0.0797267,-24.1507,56.9206
21,10000,0.0718743,-0.0260341,0.076444,-19.9113,60.1301
22,7943.3,0.0712388,-0.0206885,0.0741821,-16.1938,61.8043
23,6309.6,0.070645,-0.0163871,0.0725207,-13.0596,63.5464
24,5011.9,0.0700627,-0.0128599,0.0712331,-10.4008,65.2781
25,3981.1,0.0700202,-0.0100702,0.0707407,-8.18409,66.9776
26,3162.3,0.0698219,-0.00781425,0.0702579,-6.38579,68.7113
27,2511.9,0.069748,-0.0059669,0.0700027,-4.88972,70.514
28,1995.3,0.0697447,-0.00447458,0.0698881,-3.67087,72.2311
29,1584.9,0.0697787,-0.00326472,0.069855,-2.67873,73.9386
30,1258.9,0.06984,-0.00227952,0.0698772,-1.86942,75.6895
31,1000,0.0700556,-0.00142755,0.0700702,-1.16738,77.4048
32,794.33,0.0701365,-0.000775251,0.0701407,-0.633291,79.2203
33,630.96,0.0703814,-0.000230516,0.0703818,-0.187657,80.9856
34,501.19,0.0702411,0.000217099,0.0702414,0.177088,82.7229
35,398.11,0.070531,0.000599073,0.0705335,0.486645,84.4322
36,316.23,0.0707276,0.000919429,0.0707336,0.744779,86.1488
37,251.19,0.0708779,0.00118263,0.0708878,0.955919,87.9406
38,199.53,0.0712144,0.00139105,0.071228,1.11903,89.6721
39,158.49,0.0713996,0.00155286,0.0714165,1.24592,91.4232
40,125.89,0.0718583,0.00166825,0.0718777,1.32993,93.2304
41,100,0.0720327,0.00173845,0.0720536,1.38252,95.0036
42,79.433,0.0721587,0.00175161,0.0721799,1.39055,96.8309
43,63.096,0.0724643,0.00172678,0.0724848,1.36506,98.6918
44,50.119,0.072658,0.0016652,0.0726771,1.31289,100.772
45,39.811,0.0728126,0.00158338,0.0728298,1.24575,102.716
46,31.623,0.0730541,0.00148343,0.0730692,1.16329,104.735
47,25.119,0.0729994,0.0013784,0.0730124,1.08175,106.855
48,19.953,0.0731306,0.00126134,0.0731415,0.98813,109.13
49,15.849,0.0732584,0.00115291,0.0732675,0.90162,111.48
50,12.589,0.0733698,0.00105878,0.0733774,0.826764,113.959
51,10,0.0734254,0.000980347,0.0734319,0.764946,116.645
52,7.9433,0.0733301,0.000915246,0.0733358,0.715081,119.377
53,6.3096,0.0733727,0.000863953,0.0733778,0.674618,122.193
54,5.0119,0.0731603,0.000831214,0.073165,0.650941,124.995
55,3.9811,0.0731389,0.000813751,0.0731435,0.637452,127.811
56,3.1623,0.0729911,0.000818662,0.0729957,0.642598,130.733
57,2.5119,0.0730769,0.000833287,0.0730816,0.653308,133.771
58,1.9953,0.0731589,0.000875135,0.0731641,0.685346,136.858
59,1.5849,0.0732117,0.000931514,0.0732176,0.728968,140
60,1.2589,0.0732548,0.00101687,0.0732619,0.795287,143.304
61,1,0.0734048,0.0011277,0.0734135,0.880154,146.954
62,0.79433,0.0734694,0.00127453,0.0734805,0.993857,150.608
63,0.63096,0.0733923,0.00145429,0.0734067,1.13518,154.512
64,0.50119,0.0734337,0.00168276,0.073453,1.31272,158.76
65,0.39811,0.0734347,0.00197828,0.0734614,1.54314,163.359
66,0.31623,0.0734001,0.00232565,0.0734369,1.81479,168.551
67,0.25119,0.0734752,0.00271134,0.0735252,2.11333,174.358
68,0.19953,0.0735754,0.00323289,0.0736464,2.51595,180.963
69,0.15849,0.0737689,0.00383311,0.0738684,2.97448,188.66
70,0.12589,0.0737112,0.0045697,0.0738527,3.54749,197.662
71,0.1,0.0739494,0.00554333,0.0741569,4.28693,208.263