File: tutorials/data/eis/LFP_2_Pristine_15C.txt
Index,Frequency (Hz),Z' (Ω),-Z'' (Ω),Z (Ω),-Phase (°),Time (s)
1,1000000,1.0475,-1.22769,1.61384,-49.5281,19.0364
2,794330,0.747155,-1.11116,1.339,-56.0826,20.869
3,630960,0.545644,-0.957517,1.10207,-60.3232,24.2961
4,501190,0.397778,-0.808998,0.901502,-63.817,27.6033
5,398110,0.295119,-0.672579,0.734478,-66.3088,32.2258
6,316230,0.224756,-0.552727,0.596676,-67.8718,36.6682
7,251190,0.176042,-0.450264,0.483455,-68.6458,39.7741
8,199530,0.145018,-0.366311,0.393972,-68.402,41.5113
9,158490,0.122744,-0.297353,0.32169,-67.5697,43.348
10,125890,0.107162,-0.240912,0.26367,-66.0197,45.0689
11,100000,0.0959867,-0.195139,0.217469,-63.8079,48.3941
12,79433,0.0880252,-0.158036,0.180897,-60.8824,50.1211
13,63096,0.0821757,-0.128019,0.152124,-57.3034,51.9392
14,50119,0.0777423,-0.103617,0.129539,-53.1197,53.7721
15,39811,0.0743822,-0.0839259,0.112144,-48.4499,55.5072
16,31623,0.0717668,-0.0679172,0.098809,-43.4214,57.2358
17,25119,0.0693402,-0.0546144,0.0882655,-38.225,59.0667
18,19953,0.0677828,-0.044007,0.0808154,-32.993,60.852
19,15849,0.0665683,-0.0352992,0.0753484,-27.9357,62.6576
20,12589,0.0657102,-0.0281898,0.0715017,-23.2194,64.3798
21,10000,0.0650003,-0.0223336,0.0687301,-18.9624,67.638
22,7943.3,0.0646651,-0.0175613,0.0670073,-15.1935,69.2815
23,6309.6,0.0645007,-0.0136713,0.0659337,-11.9671,71.0041
24,5011.9,0.0641669,-0.0104517,0.0650125,-9.25123,72.7305
25,3981.1,0.0642639,-0.00787815,0.064745,-6.98905,74.4482
26,3162.3,0.0644242,-0.00576473,0.0646816,-5.11326,76.1548
27,2511.9,0.064572,-0.0040073,0.0646962,-3.55118,77.9614
28,1995.3,0.0648089,-0.00255623,0.0648593,-2.25872,79.7392
29,1584.9,0.0650711,-0.0013546,0.0650852,-1.19256,81.4191
30,1258.9,0.0653813,-0.000357802,0.0653822,-0.31355,83.1013
31,1000,0.0659092,0.000533169,0.0659114,0.463481,84.8642
32,794.33,0.0663411,0.00121894,0.0663523,1.05263,86.7155
33,630.96,0.0665378,0.00178231,0.0665617,1.53438,88.4264
34,501.19,0.0670375,0.00227737,0.0670761,1.94568,90.1433
35,398.11,0.0675385,0.00270755,0.0675928,2.2957,91.8437
36,316.23,0.0680517,0.00308943,0.0681218,2.59935,93.5822
37,251.19,0.0686187,0.00344263,0.068705,2.87215,95.3288
38,199.53,0.0692065,0.00377798,0.0693096,3.12467,97.0708
39,158.49,0.0697918,0.00410667,0.0699125,3.3675,98.8712
40,125.89,0.0704494,0.00444232,0.0705893,3.60812,100.684
41,100,0.0711125,0.00479539,0.071274,3.85783,102.44
42,79.433,0.0718066,0.00514979,0.0719911,4.10208,104.258
43,63.096,0.0725665,0.00553378,0.0727772,4.36082,106.145
44,50.119,0.0733589,0.00594168,0.0735991,4.63054,108.224
45,39.811,0.0742322,0.0063715,0.0745052,4.90579,110.169
46,31.623,0.0752512,0.00681769,0.0755594,5.17681,112.237
47,25.119,0.0762966,0.00724515,0.0766399,5.42456,114.307
48,19.953,0.0775119,0.00762634,0.0778861,5.61921,116.593
49,15.849,0.0788783,0.0079471,0.0792776,5.75322,118.963
50,12.589,0.0802742,0.00815864,0.0806878,5.80331,121.431
51,10,0.0817009,0.00824738,0.0821161,5.76425,124.133
52,7.9433,0.0832031,0.00819913,0.0836061,5.62796,126.843
53,6.3096,0.0845981,0.00802212,0.0849776,5.41695,129.648
54,5.0119,0.0859246,0.00772636,0.0862713,5.13823,132.454
55,3.9811,0.0871432,0.00734412,0.0874521,4.8173,135.27
56,3.1623,0.088358,0.00690779,0.0886276,4.47027,138.261
57,2.5119,0.0893198,0.00644941,0.0895524,4.12992,141.264
58,1.9953,0.0901647,0.00600893,0.0903648,3.81277,144.307
59,1.5849,0.0908947,0.00559625,0.0910669,3.52316,147.451
60,1.2589,0.0915469,0.00526751,0.0916983,3.29311,150.798
61,1,0.0921213,0.0050252,0.0922583,3.12238,154.451
62,0.79433,0.092622,0.00486944,0.0927499,3.00946,158.139
63,0.63096,0.0930919,0.00483083,0.0932172,2.97059,162.017
64,0.50119,0.0935265,0.00492984,0.0936563,3.01731,166.264
65,0.39811,0.0939287,0.00515014,0.0940698,3.1384,170.895
66,0.31623,0.0943611,0.0055023,0.0945214,3.3372,176.108
67,0.25119,0.0949048,0.00605234,0.0950976,3.64896,181.95
68,0.19953,0.0952719,0.00666354,0.0955047,4.00089,188.593
69,0.15849,0.0958315,0.00757381,0.0961303,4.51884,196.308
70,0.12589,0.0964235,0.008712,0.0968163,5.16274,205.25
71,0.1,0.0971519,0.0099369,0.0976588,5.84002,215.844