File: tutorials/data/eis/LFP_3_Pristine_25C.txt
Index,Frequency (Hz),Z' (Ω),-Z'' (Ω),Z (Ω),-Phase (°),Time (s)
1,1000000,1.16873,-1.35034,1.78588,-49.1237,14.4788
2,794330,0.840536,-1.22445,1.48518,-55.5319,16.3172
3,630960,0.618877,-1.05974,1.22722,-59.7156,19.7879
4,501190,0.454619,-0.899475,1.00784,-63.1867,25.9367
5,398110,0.339666,-0.752346,0.825468,-65.702,30.5423
6,316230,0.259414,-0.622579,0.674463,-67.3797,33.6905
7,251190,0.202286,-0.511998,0.55051,-68.4415,36.8119
8,199530,0.1641,-0.420311,0.45121,-68.6731,38.5947
9,158490,0.135493,-0.344248,0.369953,-68.5158,40.3446
10,125890,0.114595,-0.281306,0.303752,-67.8355,42.0501
11,100000,0.0990886,-0.229322,0.249814,-66.6311,45.4325
12,79433,0.0878184,-0.186639,0.206267,-64.8018,47.0566
13,63096,0.0794999,-0.151589,0.171171,-62.3255,48.8817
14,50119,0.0733215,-0.122883,0.143095,-59.1763,50.7072
15,39811,0.06879,-0.099576,0.121027,-55.3621,52.4473
16,31623,0.0653438,-0.0805253,0.103702,-50.9418,54.1643
17,25119,0.0624794,-0.0647887,0.090007,-46.0395,55.9856
18,19953,0.0605371,-0.0521808,0.0799223,-40.7601,57.8335
19,15849,0.0591348,-0.0419402,0.0724977,-35.3454,59.6512
20,12589,0.0580547,-0.0335491,0.0670514,-30.023,61.3835
21,10000,0.0571653,-0.0267253,0.063104,-25.0565,64.5481
22,7943.3,0.0567202,-0.0211608,0.0605389,-20.4592,66.1786
23,6309.6,0.0564905,-0.0166572,0.0588951,-16.4291,67.9107
24,5011.9,0.0560978,-0.0129379,0.0575704,-12.9871,69.6358
25,3981.1,0.0560876,-0.00998667,0.0569697,-10.096,71.3758
26,3162.3,0.0561878,-0.00759683,0.056699,-7.69994,73.0824
27,2511.9,0.0562701,-0.00562666,0.0565507,-5.71024,74.8943
28,1995.3,0.0564239,-0.00400776,0.056566,-4.06287,76.6364
29,1584.9,0.0566046,-0.00268377,0.0566682,-2.71451,78.3333
30,1258.9,0.0568051,-0.00160018,0.0568277,-1.61358,80.0243
31,1000,0.0572449,-0.000627636,0.0572484,-0.628169,81.7465
32,794.33,0.0575466,7.73162e-05,0.0575466,0.0769792,83.6082
33,630.96,0.0576489,0.000648567,0.0576526,0.644567,85.318
34,501.19,0.0579962,0.00112875,0.0580072,1.11498,87.046
35,398.11,0.0584029,0.00153594,0.0584231,1.50648,88.7502
36,316.23,0.0587783,0.00188622,0.0588085,1.83801,90.4983
37,251.19,0.0591522,0.00219643,0.059193,2.12652,92.2696
38,199.53,0.0595776,0.00248315,0.0596293,2.38666,93.9963
39,158.49,0.0599935,0.00275711,0.0600568,2.63127,95.7837
40,125.89,0.0604571,0.00302965,0.060533,2.86883,97.5803
41,100,0.0609647,0.00331025,0.0610545,3.10798,99.3658
42,79.433,0.0614966,0.00357028,0.0616002,3.32267,101.172
43,63.096,0.0620773,0.00382759,0.0621952,3.5283,103.08
44,50.119,0.0627105,0.0040639,0.0628421,3.70781,105.163
45,39.811,0.0633995,0.00427527,0.0635435,3.85784,107.121
46,31.623,0.0641215,0.00443965,0.064275,3.96073,109.199
47,25.119,0.0649084,0.00454759,0.0650676,4.00769,111.292
48,19.953,0.0657132,0.00457074,0.065872,3.97885,113.596
49,15.849,0.0665242,0.00453188,0.0666783,3.89719,115.977
50,12.589,0.0673201,0.00441765,0.0674649,3.75445,118.438
51,10,0.0680458,0.00424006,0.0681778,3.56559,121.153
52,7.9433,0.0687475,0.00401585,0.0688647,3.34311,123.903
53,6.3096,0.0693733,0.00376042,0.0694752,3.10271,126.726
54,5.0119,0.069812,0.00349163,0.0698992,2.86325,129.551
55,3.9811,0.0702807,0.00323479,0.0703551,2.63528,132.381
56,3.1623,0.0706824,0.00299886,0.070746,2.42945,135.35
57,2.5119,0.0710357,0.00279759,0.0710908,2.25531,138.363
58,1.9953,0.0713148,0.00263961,0.0713636,2.11975,141.477
59,1.5849,0.0715481,0.00252085,0.0715925,2.01786,144.601
60,1.2589,0.0717994,0.00245939,0.0718416,1.96182,147.956
61,1,0.0719772,0.00244022,0.0720185,1.94174,151.612
62,0.79433,0.072221,0.00249996,0.0722642,1.98253,155.291
63,0.63096,0.0724115,0.00261471,0.0724587,2.068,159.166
64,0.50119,0.0725728,0.00280515,0.072627,2.21354,163.389
65,0.39811,0.0728078,0.00305352,0.0728718,2.40155,168.003
66,0.31623,0.0730299,0.00341243,0.0731096,2.67528,173.242
67,0.25119,0.0732395,0.00387314,0.0733419,3.02716,179.114
68,0.19953,0.0735597,0.00443688,0.0736934,3.45171,185.761
69,0.15849,0.073832,0.00515405,0.0740117,3.99321,193.488
70,0.12589,0.0741537,0.00602145,0.0743977,4.64236,202.42
71,0.1,0.0744947,0.00724328,0.074846,5.55353,213.012