File: tutorials/data/eis/LFP_1_Pristine_25C.txt
Index,Frequency (Hz),Z' (Ω),-Z'' (Ω),Z (Ω),-Phase (°),Time (s)
1,1000000,1.14891,-1.38894,1.80254,-50.4029,14.4652
2,794330,0.812289,-1.25467,1.49466,-57.0804,17.8077
3,630960,0.585735,-1.08088,1.22938,-61.5465,21.1534
4,501190,0.419976,-0.912583,1.00458,-65.2878,24.485
5,398110,0.304858,-0.757671,0.816703,-68.082,29.1511
6,316230,0.226283,-0.621699,0.6616,-69.9998,32.2934
7,251190,0.17232,-0.506008,0.534545,-71.1938,35.4188
8,199530,0.137851,-0.410535,0.433061,-71.4388,37.1402
9,158490,0.113504,-0.332261,0.351113,-71.1393,39.0263
10,125890,0.096861,-0.268636,0.285565,-70.1724,40.7533
11,100000,0.0850622,-0.216787,0.232878,-68.5761,44.0896
12,79433,0.0768769,-0.175143,0.191272,-66.3015,45.7533
13,63096,0.0709159,-0.141465,0.158245,-63.3756,47.5609
14,50119,0.0664917,-0.114385,0.132306,-59.8306,49.381
15,39811,0.0630644,-0.092484,0.111939,-55.7101,51.2527
16,31623,0.0603939,-0.0747636,0.0961094,-51.0688,52.9784
17,25119,0.0580125,-0.0601292,0.0835522,-46.0264,54.8093
18,19953,0.05642,-0.0484667,0.074379,-40.6637,56.5313
19,15849,0.0551884,-0.0389162,0.0675295,-35.1896,58.2947
20,12589,0.0542885,-0.0311363,0.0625836,-29.8357,60.0205
21,10000,0.0534777,-0.0247396,0.0589229,-24.826,63.1513
22,7943.3,0.0530842,-0.0195543,0.0565712,-20.2219,64.7835
23,6309.6,0.0529012,-0.0153611,0.0550863,-16.1919,66.5109
24,5011.9,0.0525485,-0.0118934,0.0538776,-12.753,68.2517
25,3981.1,0.0525658,-0.00914609,0.0533555,-9.87027,69.9679
26,3162.3,0.0526827,-0.0069209,0.0531354,-7.48406,71.6848
27,2511.9,0.052816,-0.00509755,0.0530614,-5.51284,73.4964
28,1995.3,0.0529464,-0.00359203,0.0530681,-3.88116,75.216
29,1584.9,0.0531541,-0.00236352,0.0532066,-2.546,76.9466
30,1258.9,0.0533654,-0.001355,0.0533826,-1.45449,78.6459
31,1000,0.0537469,-0.000440669,0.0537487,-0.469755,80.3679
32,794.33,0.0540641,0.000220814,0.0540646,0.234012,82.2103
33,630.96,0.0541673,0.000756897,0.0541726,0.80056,83.9544
34,501.19,0.0545125,0.00121405,0.054526,1.27582,85.6833
35,398.11,0.0548333,0.00160317,0.0548567,1.67469,87.3895
36,316.23,0.0552327,0.00194698,0.055267,2.01887,89.1217
37,251.19,0.0555955,0.00225599,0.0556413,2.32371,90.8722
38,199.53,0.0560207,0.00254715,0.0560785,2.60334,92.6027
39,158.49,0.0564351,0.00282982,0.056506,2.87057,94.3411
40,125.89,0.0569214,0.00311387,0.0570065,3.13123,96.2187
41,100,0.05743,0.00339834,0.0575304,3.38645,97.9867
42,79.433,0.0579895,0.00366393,0.0581051,3.6153,99.8044
43,63.096,0.0585769,0.00391714,0.0587077,3.82577,101.657
44,50.119,0.0592049,0.0041438,0.0593498,4.00365,103.734
45,39.811,0.0599442,0.00434021,0.0601011,4.14123,105.677
46,31.623,0.0606685,0.00448092,0.0608337,4.22415,107.721
47,25.119,0.0614506,0.00456078,0.0616196,4.24463,109.81
48,19.953,0.0622524,0.00455991,0.0624192,4.18936,112.119
49,15.849,0.0630767,0.00449346,0.0632365,4.07475,114.471
50,12.589,0.0637831,0.00435897,0.0639319,3.90954,116.964
51,10,0.0645144,0.00416742,0.0646488,3.69599,119.658
52,7.9433,0.0651766,0.00393343,0.0652952,3.45363,122.419
53,6.3096,0.0657157,0.00367071,0.0658181,3.19707,125.235
54,5.0119,0.0662303,0.00340318,0.0663177,2.9415,128.037
55,3.9811,0.0666585,0.00314838,0.0667328,2.70416,130.857
56,3.1623,0.0670494,0.00292251,0.0671131,2.49579,133.803
57,2.5119,0.0673386,0.00273319,0.067394,2.32429,136.813
58,1.9953,0.0676175,0.00258497,0.0676669,2.18932,139.864
59,1.5849,0.067897,0.00248475,0.0679425,2.09585,143.007
60,1.2589,0.0681006,0.00242927,0.0681439,2.04298,146.292
61,1,0.0683052,0.00242462,0.0683483,2.03296,149.972
62,0.79433,0.0684965,0.00250117,0.0685422,2.09124,153.626
63,0.63096,0.0687193,0.00262647,0.0687695,2.18879,157.501
64,0.50119,0.0688643,0.00281891,0.0689219,2.34405,161.793
65,0.39811,0.0690622,0.00311213,0.0691322,2.58016,166.541
66,0.31623,0.0693077,0.00350078,0.0693961,2.8916,171.73
67,0.25119,0.0695838,0.00393651,0.069695,3.2379,177.577
68,0.19953,0.0697987,0.00457162,0.0699483,3.74736,184.199
69,0.15849,0.0701323,0.00533134,0.0703346,4.34717,191.951
70,0.12589,0.0704519,0.00618831,0.0707231,5.01983,200.909
71,0.1,0.0706796,0.00727028,0.0710525,5.87293,211.515