File: tutorials/data/eis/LFP_1_Pristine_35C.txt
Index,Frequency (Hz),Z' (Ω),-Z'' (Ω),Z (Ω),-Phase (°),Time (s)
1,1000000,1.16803,-1.37522,1.8043,-49.6575,19.2508
2,794330,0.833574,-1.24427,1.49768,-56.1807,21.1444
3,630960,0.608306,-1.07346,1.23383,-60.4607,24.5341
4,501190,0.442509,-0.906851,1.00906,-63.9894,30.6812
5,398110,0.327714,-0.75365,0.821818,-66.4989,35.308
6,316230,0.249216,-0.61935,0.66761,-68.081,39.7371
7,251190,0.194978,-0.504706,0.541059,-68.8774,42.8709
8,199530,0.160192,-0.410183,0.440354,-68.6674,44.5817
9,158490,0.135406,-0.332719,0.359217,-67.8552,46.3963
10,125890,0.118152,-0.269443,0.294209,-66.3224,48.1335
11,100000,0.105876,-0.218056,0.242401,-64.1014,51.3479
12,79433,0.0971347,-0.176371,0.20135,-61.1566,52.9629
13,63096,0.0907675,-0.142659,0.169087,-57.5332,54.8081
14,50119,0.0860067,-0.115365,0.143897,-53.2949,56.631
15,39811,0.0823929,-0.0932654,0.124447,-48.5418,58.4536
16,31623,0.0796713,-0.0753837,0.109682,-43.416,60.2663
17,25119,0.0771682,-0.0605685,0.0980993,-38.128,61.9806
18,19953,0.0755363,-0.0487507,0.089902,-32.8379,63.8028
19,15849,0.0743837,-0.0391656,0.0840647,-27.7684,65.6254
20,12589,0.0734688,-0.0313267,0.0798688,-23.0931,67.384
21,10000,0.0728514,-0.024952,0.077006,-18.9066,70.5902
22,7943.3,0.0725006,-0.0197862,0.0751521,-15.2649,72.2289
23,6309.6,0.0723019,-0.0156117,0.0739681,-12.1845,73.9915
24,5011.9,0.0718446,-0.0121756,0.072869,-9.61861,75.8098
25,3981.1,0.0718892,-0.00947142,0.0725105,-7.5055,77.5263
26,3162.3,0.0719144,-0.00725979,0.07228,-5.7645,79.2282
27,2511.9,0.0719858,-0.00545883,0.0721925,-4.33656,80.9673
28,1995.3,0.0720873,-0.00400166,0.0721983,-3.1773,82.6841
29,1584.9,0.0722004,-0.0028202,0.0722555,-2.23688,84.3459
30,1258.9,0.0723693,-0.00186573,0.0723933,-1.4768,86.0432
31,1000,0.0727582,-0.001042,0.0727657,-0.820502,87.7484
32,794.33,0.0730094,-0.000419793,0.0730106,-0.329439,89.5511
33,630.96,0.0732521,9.59859e-05,0.0732522,0.0750774,91.262
34,501.19,0.0731862,0.000516343,0.0731881,0.404226,93.0263
35,398.11,0.0734305,0.00088562,0.0734359,0.690991,94.7182
36,316.23,0.0737771,0.00120877,0.073787,0.938655,96.4331
37,251.19,0.0740894,0.00149198,0.0741044,1.15365,98.1835
38,199.53,0.0744521,0.00174177,0.0744724,1.34016,99.9425
39,158.49,0.074773,0.00195999,0.0747986,1.50153,101.693
40,125.89,0.0752118,0.00215071,0.0752425,1.63795,103.486
41,100,0.0756395,0.00230826,0.0756748,1.74793,105.295
42,79.433,0.076065,0.0024102,0.0761032,1.81487,107.118
43,63.096,0.0765051,0.00246879,0.0765449,1.84827,108.962
44,50.119,0.0769899,0.00248529,0.07703,1.84891,111.047
45,39.811,0.0774293,0.0024573,0.0774683,1.81773,112.995
46,31.623,0.0778697,0.00239111,0.0779064,1.7588,115.03
47,25.119,0.0782416,0.00229313,0.0782752,1.67876,117.104
48,19.953,0.0786509,0.00215945,0.0786805,1.57273,119.422
49,15.849,0.0789679,0.00201488,0.0789936,1.4616,121.769
50,12.589,0.0792776,0.00186952,0.0792997,1.3509,124.231
51,10,0.0795095,0.00172562,0.0795282,1.24331,126.922
52,7.9433,0.0797389,0.00159507,0.0797548,1.14597,129.622
53,6.3096,0.0799337,0.00148044,0.0799474,1.06104,132.439
54,5.0119,0.0801043,0.00138019,0.0801162,0.987105,135.221
55,3.9811,0.0802437,0.00131189,0.0802544,0.936637,138.086
56,3.1623,0.080397,0.0012659,0.0804069,0.902084,141.023
57,2.5119,0.0805215,0.00123999,0.0805311,0.882256,143.951
58,1.9953,0.0806249,0.00124466,0.0806345,0.884441,146.993
59,1.5849,0.0807593,0.00127503,0.0807694,0.904511,150.168
60,1.2589,0.0808286,0.00133449,0.0808396,0.945873,153.487
61,1,0.0809581,0.00142452,0.0809706,1.00806,157.172
62,0.79433,0.081057,0.00157049,0.0810722,1.10998,160.789
63,0.63096,0.081191,0.00175402,0.0812099,1.23761,164.662
64,0.50119,0.0813377,0.00197856,0.0813617,1.39346,168.913
65,0.39811,0.0815013,0.00229223,0.0815335,1.61102,173.591
66,0.31623,0.0816522,0.00266757,0.0816958,1.87118,178.758
67,0.25119,0.0818549,0.00309425,0.0819133,2.16485,184.603
68,0.19953,0.0820442,0.00366607,0.082126,2.55851,191.201
69,0.15849,0.0822986,0.00434571,0.0824133,3.02264,198.897
70,0.12589,0.0825489,0.00513475,0.0827084,3.55936,207.895
71,0.1,0.0828078,0.00607681,0.0830305,4.1971,218.502