File: tutorials/data/eis/LFP_3_Pristine_5C.txt
Index,Frequency (Hz),Z' (Ω),-Z'' (Ω),Z (Ω),-Phase (°),Time (s)
1,1000000,1.1638,-1.40013,1.82066,-50.2662,33.9178
2,794330,0.824014,-1.26505,1.50975,-56.921,35.7801
3,630960,0.595132,-1.08949,1.24144,-61.3546,39.1888
4,501190,0.427526,-0.918801,1.0134,-65.0471,42.4999
5,398110,0.311752,-0.762879,0.82412,-67.7725,47.1361
6,316230,0.232699,-0.625731,0.667599,-69.6006,50.2729
7,251190,0.178385,-0.508623,0.538998,-70.6732,53.4332
8,199530,0.144029,-0.412642,0.437056,-70.759,55.1499
9,158490,0.11964,-0.333534,0.354343,-70.2669,56.9733
10,125890,0.103017,-0.269226,0.288262,-69.0611,58.7184
11,100000,0.0914112,-0.217181,0.235634,-67.1738,61.9276
12,79433,0.0833134,-0.175089,0.1939,-64.5532,63.6575
13,63096,0.0775693,-0.141268,0.161164,-61.2292,65.4792
14,50119,0.073312,-0.113965,0.135509,-57.2475,67.3321
15,39811,0.0700784,-0.0919864,0.115639,-52.6986,69.0605
16,31623,0.0675647,-0.07422,0.100367,-47.6875,70.8019
17,25119,0.0652823,-0.0595785,0.088382,-42.3845,72.6151
18,19953,0.0637579,-0.0478976,0.0797449,-36.9154,74.4379
19,15849,0.0626257,-0.0383757,0.0734484,-31.4991,76.1594
20,12589,0.061762,-0.0305639,0.0689108,-26.3292,77.9113
21,10000,0.0611248,-0.0241834,0.0657349,-21.5857,81.1443
22,7943.3,0.0607548,-0.0189195,0.0636325,-17.2969,82.7797
23,6309.6,0.060635,-0.0146427,0.0623779,-13.5764,84.5163
24,5011.9,0.0603478,-0.0110879,0.0613579,-10.4111,86.2431
25,3981.1,0.0604744,-0.00823559,0.0610326,-7.75501,87.9573
26,3162.3,0.0607027,-0.00589166,0.0609879,-5.54363,89.6674
27,2511.9,0.0609742,-0.00392459,0.0611003,-3.68275,91.3892
28,1995.3,0.0612295,-0.00227816,0.0612718,-2.13082,93.0956
29,1584.9,0.0615988,-0.000898968,0.0616054,-0.836111,94.7718
30,1258.9,0.0620374,0.000267433,0.062038,0.246991,96.4706
31,1000,0.062691,0.00134133,0.0627053,1.22571,98.1919
32,794.33,0.0632674,0.00218265,0.063305,1.97585,100.014
33,630.96,0.063593,0.00289546,0.0636589,2.60694,101.723
34,501.19,0.0642678,0.00354565,0.0643655,3.1578,103.509
35,398.11,0.0649729,0.00413607,0.0651044,3.64244,105.206
36,316.23,0.0656643,0.0046821,0.065831,4.0785,106.923
37,251.19,0.0664439,0.00521571,0.0666483,4.4884,108.681
38,199.53,0.0672677,0.00575342,0.0675133,4.88862,110.425
39,158.49,0.0681406,0.00630793,0.0684319,5.28892,112.172
40,125.89,0.0690745,0.00689302,0.0694176,5.69874,113.959
41,100,0.0700771,0.00751153,0.0704786,6.11814,115.767
42,79.433,0.0711415,0.00814588,0.0716064,6.53206,117.593
43,63.096,0.0723379,0.00881679,0.0728732,6.94913,119.465
44,50.119,0.073593,0.0095107,0.074205,7.36373,121.539
45,39.811,0.0749195,0.010244,0.0756166,7.78595,123.49
46,31.623,0.0763843,0.0110283,0.0771763,8.21553,125.514
47,25.119,0.0779676,0.0118831,0.078868,8.66583,127.574
48,19.953,0.0796749,0.0127864,0.0806944,9.11721,129.89
49,15.849,0.0815883,0.0137815,0.0827441,9.58765,132.233
50,12.589,0.0836644,0.01482,0.0849668,10.045,134.706
51,10,0.0860227,0.015875,0.0874753,10.456,137.417
52,7.9433,0.0886427,0.0168733,0.0902344,10.7774,140.13
53,6.3096,0.0915652,0.0177486,0.0932695,10.9699,142.966
54,5.0119,0.0946887,0.0184009,0.0964601,10.9972,145.736
55,3.9811,0.0980403,0.0187818,0.0998231,10.8449,148.565
56,3.1623,0.101344,0.0188308,0.103078,10.5262,151.48
57,2.5119,0.1052,0.0186668,0.106843,10.0619,154.483
58,1.9953,0.108412,0.0181191,0.109916,9.48824,157.596
59,1.5849,0.111459,0.0173343,0.112799,8.83989,160.78
60,1.2589,0.1142,0.016391,0.11537,8.16782,164.083
61,1,0.116634,0.0153731,0.117643,7.50864,167.765
62,0.79433,0.118793,0.0143595,0.119658,6.89237,171.462
63,0.63096,0.12064,0.0134438,0.121387,6.35863,175.347
64,0.50119,0.122281,0.012749,0.122944,5.95215,179.615
65,0.39811,0.123647,0.0122107,0.124248,5.63996,184.217
66,0.31623,0.124973,0.0119212,0.125541,5.44897,189.394
67,0.25119,0.126275,0.0119852,0.126843,5.42187,195.203
68,0.19953,0.127486,0.0121652,0.128065,5.45087,201.814
69,0.15849,0.12865,0.0128247,0.129288,5.69282,209.491
70,0.12589,0.130067,0.0138508,0.130802,6.07851,218.452
71,0.1,0.131515,0.0150379,0.132372,6.52306,229.047