File: tutorials/data/eis/LFP_3_Pristine_35C.txt
Index,Frequency (Hz),Z' (Ω),-Z'' (Ω),Z (Ω),-Phase (°),Time (s)
1,1000000,1.19691,-1.39337,1.83686,-49.3373,18.8582
2,794330,0.858952,-1.26294,1.52735,-55.7795,20.7248
3,630960,0.630562,-1.09145,1.26051,-59.9838,24.1389
4,501190,0.461613,-0.924767,1.03358,-63.4731,30.2954
5,398110,0.343728,-0.771142,0.84428,-65.9756,34.915
6,316230,0.262286,-0.636563,0.688482,-67.6066,38.0245
7,251190,0.204979,-0.521844,0.560658,-68.5552,41.1524
8,199530,0.167271,-0.427058,0.458648,-68.6106,42.869
9,158490,0.13937,-0.348467,0.375304,-68.201,44.6821
10,125890,0.119321,-0.283859,0.307918,-67.2004,46.4195
11,100000,0.104617,-0.230799,0.253402,-65.6161,49.7144
12,79433,0.0940376,-0.187492,0.209753,-63.3637,51.4359
13,63096,0.086251,-0.152021,0.174785,-60.4311,53.1925
14,50119,0.0803559,-0.123135,0.147035,-56.8721,55.0058
15,39811,0.0760406,-0.0997244,0.125408,-52.6742,56.822
16,31623,0.072785,-0.080703,0.108677,-47.9531,58.6383
17,25119,0.0699336,-0.0649256,0.0954256,-42.8733,60.4052
18,19953,0.068017,-0.0523544,0.0858329,-37.5864,62.2162
19,15849,0.0665648,-0.0421123,0.0787675,-32.3195,64.0344
20,12589,0.0655177,-0.0337712,0.0737093,-27.2689,65.8989
21,10000,0.0645143,-0.0269479,0.0699163,-22.6705,69.0203
22,7943.3,0.0640428,-0.0214032,0.0675247,-18.4797,70.6607
23,6309.6,0.0638134,-0.0169398,0.0660235,-14.8668,72.44
24,5011.9,0.0633397,-0.0132537,0.0647115,-11.8185,74.2534
25,3981.1,0.0633112,-0.0103443,0.0641507,-9.27948,75.9635
26,3162.3,0.0633885,-0.00799622,0.0638908,-7.18968,77.6696
27,2511.9,0.0633379,-0.00605765,0.063627,-5.46316,79.4205
28,1995.3,0.0633812,-0.00448908,0.06354,-4.0513,81.1465
29,1584.9,0.0634543,-0.00321667,0.0635357,-2.902,82.8327
30,1258.9,0.0636047,-0.00218656,0.0636422,-1.9689,84.5553
31,1000,0.0639302,-0.00127136,0.0639428,-1.13927,86.2775
32,794.33,0.0641053,-0.000613559,0.0641082,-0.548367,88.0997
33,630.96,0.0640416,-7.87882e-05,0.0640417,-0.070489,89.8226
34,501.19,0.0642289,0.000371505,0.06423,0.3314,91.6008
35,398.11,0.0645046,0.000751784,0.064509,0.667737,93.2965
36,316.23,0.0647588,0.00108257,0.0647678,0.957723,95.023
37,251.19,0.0650489,0.00137258,0.0650634,1.2088,96.9903
38,199.53,0.0652811,0.00163076,0.0653015,1.43099,103.213
39,158.49,0.0656635,0.00186293,0.06569,1.62509,104.975
40,125.89,0.0660528,0.0020635,0.066085,1.78934,106.782
41,100,0.066417,0.00223852,0.0664548,1.93037,108.555
42,79.433,0.0668299,0.00236056,0.0668716,2.02296,110.423
43,63.096,0.0672569,0.00244197,0.0673012,2.07939,112.301
44,50.119,0.0676626,0.00247448,0.0677078,2.09442,114.369
45,39.811,0.0680845,0.00246727,0.0681292,2.0754,116.311
46,31.623,0.0685058,0.00241816,0.0685484,2.02162,118.334
47,25.119,0.068867,0.00233304,0.0689065,1.94029,120.42
48,19.953,0.0692192,0.00220534,0.0692543,1.82484,122.806
49,15.849,0.0695831,0.00207139,0.0696139,1.70511,125.15
50,12.589,0.0698614,0.0019287,0.069888,1.58139,127.618
51,10,0.0700523,0.00178043,0.0700749,1.4559,130.356
52,7.9433,0.0702903,0.00164858,0.0703096,1.34356,133.07
53,6.3096,0.0704736,0.00152567,0.0704902,1.24019,135.87
54,5.0119,0.0705902,0.00143133,0.0706047,1.16161,138.646
55,3.9811,0.0706967,0.00135179,0.0707096,1.09542,147.018
56,3.1623,0.0708146,0.00129824,0.0708265,1.05029,149.992
57,2.5119,0.0709055,0.00126844,0.0709168,1.02486,152.919
58,1.9953,0.0710016,0.00126713,0.0710129,1.02242,156.045
59,1.5849,0.0711151,0.00129126,0.0711269,1.04023,159.17
60,1.2589,0.0711787,0.00135047,0.0711915,1.08694,162.506
61,1,0.0712611,0.00143223,0.0712755,1.1514,166.138
62,0.79433,0.0713985,0.00157343,0.0714158,1.26244,169.832
63,0.63096,0.0714777,0.00174784,0.071499,1.40077,173.717
64,0.50119,0.0715653,0.00199228,0.071593,1.59462,177.951
65,0.39811,0.071699,0.00225601,0.0717344,1.80222,182.558
66,0.31623,0.0718049,0.00261531,0.0718525,2.08593,187.754
67,0.25119,0.0719248,0.00309449,0.0719914,2.46357,193.607
68,0.19953,0.0721781,0.00359199,0.0722674,2.84901,200.252
69,0.15849,0.0723198,0.00426328,0.0724454,3.3737,207.944
70,0.12589,0.0724901,0.00507431,0.0726675,4.00417,216.876
71,0.1,0.0728183,0.00615524,0.073078,4.83165,227.497