File: tutorials/data/eis/LFP_3_Pristine_15C.txt
Index,Frequency (Hz),Z' (Ω),-Z'' (Ω),Z (Ω),-Phase (°),Time (s)
1,1000000,1.01709,-1.20059,1.5735,-49.7302,43.2082
2,794330,0.723707,-1.08692,1.30581,-56.343,45.0621
3,630960,0.526302,-0.936074,1.07389,-60.6534,48.5059
4,501190,0.38183,-0.79078,0.878138,-64.2263,51.8568
5,398110,0.28165,-0.657459,0.715248,-66.8101,56.4479
6,316230,0.212998,-0.540334,0.5808,-68.4858,60.8768
7,251190,0.165538,-0.440303,0.470393,-69.3956,63.9905
8,199530,0.135169,-0.358141,0.3828,-69.3225,67.3291
9,158490,0.113383,-0.290439,0.311786,-68.675,69.0443
10,125890,0.0982907,-0.235522,0.255209,-67.3477,70.7893
11,100000,0.0874422,-0.190928,0.209999,-65.3929,74.0254
12,79433,0.0796015,-0.154671,0.173952,-62.7673,75.7547
13,63096,0.0738031,-0.125342,0.145456,-59.5099,77.6276
14,50119,0.0694611,-0.101654,0.123119,-55.6549,79.455
15,39811,0.0660998,-0.0824278,0.105658,-51.2735,81.1878
16,31623,0.0631474,-0.0665038,0.0917079,-46.4829,83.0042
17,25119,0.0610529,-0.0537576,0.081347,-41.3642,84.7436
18,19953,0.0594718,-0.0433656,0.0736035,-36.0987,86.5728
19,15849,0.0582647,-0.0348309,0.067882,-30.8711,88.3908
20,12589,0.0573905,-0.0278318,0.063783,-25.8713,90.136
21,10000,0.0566132,-0.0220395,0.060752,-21.271,93.2649
22,7943.3,0.0562509,-0.0173207,0.0588572,-17.1145,94.9143
23,6309.6,0.0561181,-0.0134819,0.0577148,-13.5088,96.6625
24,5011.9,0.0557998,-0.0102934,0.0567413,-10.4519,98.4842
25,3981.1,0.055897,-0.00775113,0.0564318,-7.89476,100.2
26,3162.3,0.0560997,-0.00567864,0.0563864,-5.78002,101.902
27,2511.9,0.0563024,-0.00395367,0.056441,-4.01683,103.633
28,1995.3,0.0565192,-0.00251781,0.0565752,-2.55072,105.373
29,1584.9,0.0567782,-0.00132537,0.0567937,-1.33721,107.045
30,1258.9,0.0571057,-0.000333698,0.0571067,-0.334805,108.743
31,1000,0.057609,0.000580974,0.0576119,0.577796,110.481
32,794.33,0.058065,0.00126203,0.0580787,1.24512,112.292
33,630.96,0.0582765,0.00182626,0.0583051,1.79494,114
34,501.19,0.0587773,0.00232403,0.0588233,2.26427,115.784
35,398.11,0.0593236,0.00276056,0.0593878,2.66427,117.489
36,316.23,0.0598719,0.00314964,0.0599547,3.01135,119.235
37,251.19,0.060434,0.00350349,0.0605355,3.31784,120.983
38,199.53,0.0610052,0.00383825,0.0611259,3.60012,122.755
39,158.49,0.0616955,0.00416923,0.0618362,3.86603,124.502
40,125.89,0.0623347,0.00449437,0.0624965,4.12393,126.288
41,100,0.0630015,0.00483577,0.0631868,4.38922,128.081
42,79.433,0.0637138,0.00517938,0.063924,4.64743,129.911
43,63.096,0.0644812,0.00554914,0.0647195,4.91866,131.795
44,50.119,0.0652512,0.00594628,0.0655216,5.20693,133.854
45,39.811,0.0661295,0.00637789,0.0664364,5.50888,135.808
46,31.623,0.0671029,0.00683719,0.0674503,5.81786,137.841
47,25.119,0.0681907,0.00730242,0.0685806,6.11241,139.929
48,19.953,0.0694079,0.00773615,0.0698377,6.35989,142.24
49,15.849,0.0707285,0.0081271,0.0711939,6.55486,144.578
50,12.589,0.0721618,0.0084263,0.0726521,6.66024,147.046
51,10,0.073622,0.0086066,0.0741234,6.66775,149.746
52,7.9433,0.075199,0.00864979,0.0756949,6.56163,152.437
53,6.3096,0.0766959,0.00854741,0.0771707,6.35912,155.278
54,5.0119,0.0781439,0.00830661,0.0785841,6.06769,158.104
55,3.9811,0.0795186,0.00795093,0.0799152,5.70993,160.945
56,3.1623,0.0808152,0.00752259,0.0811646,5.31799,163.873
57,2.5119,0.0819489,0.00704729,0.0822514,4.91512,166.824
58,1.9953,0.0829219,0.00656459,0.0831813,4.52643,169.867
59,1.5849,0.0837954,0.00611838,0.0840184,4.17608,172.986
60,1.2589,0.0845346,0.00573139,0.0847287,3.87868,176.3
61,1,0.0851812,0.00541145,0.0853529,3.63504,179.964
62,0.79433,0.085718,0.00519744,0.0858755,3.46983,183.601
63,0.63096,0.0862357,0.00509139,0.0863858,3.37885,187.494
64,0.50119,0.0867329,0.00515257,0.0868858,3.39979,191.736
65,0.39811,0.0871254,0.00526487,0.0872843,3.4581,196.442
66,0.31623,0.0875811,0.0055588,0.0877573,3.63171,201.629
67,0.25119,0.0880535,0.00609166,0.0882639,3.9575,207.479
68,0.19953,0.0886166,0.00662083,0.0888636,4.27281,214.096
69,0.15849,0.0891058,0.00747664,0.0894189,4.79631,221.782
70,0.12589,0.0896529,0.00858376,0.0900629,5.46908,230.765
71,0.1,0.090392,0.00999594,0.0909431,6.31038,241.408