File: tutorials/data/eis/LFP_1_Pristine_15C.txt
Index,Frequency (Hz),Z' (Ω),-Z'' (Ω),Z (Ω),-Phase (°),Time (s)
1,1000000,0.990474,-1.17628,1.53775,-49.9012,19.0768
2,794330,0.702582,-1.06422,1.27522,-56.5677,20.9653
3,630960,0.509699,-0.916121,1.04837,-60.9099,22.8184
4,501190,0.368704,-0.774148,0.857466,-64.5329,26.2386
5,398110,0.270727,-0.643543,0.69817,-67.1844,30.8629
6,316230,0.203564,-0.52848,0.56633,-68.9339,35.2838
7,251190,0.157339,-0.430728,0.458566,-69.9334,38.3904
8,199530,0.127807,-0.350346,0.37293,-69.958,40.1174
9,158490,0.10661,-0.284177,0.303516,-69.4362,41.9649
10,125890,0.0919565,-0.23049,0.248157,-68.2499,43.6816
11,100000,0.0813783,-0.186882,0.203832,-66.4692,46.8919
12,79433,0.0737755,-0.151613,0.16861,-64.0523,48.5538
13,63096,0.0680634,-0.123032,0.140604,-61.0479,50.3772
14,50119,0.0637114,-0.0999514,0.11853,-57.4856,52.2201
15,39811,0.0602891,-0.0812091,0.101142,-53.41,54.0513
16,31623,0.0572467,-0.065604,0.0870693,-48.8917,55.7929
17,25119,0.0550779,-0.0531238,0.0765226,-43.9653,57.535
18,19953,0.053422,-0.0428919,0.06851,-38.7606,59.3464
19,15849,0.0521527,-0.0344594,0.0625089,-33.4544,61.1097
20,12589,0.0512497,-0.0275417,0.0581814,-28.2537,62.8325
21,10000,0.0504094,-0.0218007,0.0549216,-23.3871,65.967
22,7943.3,0.0500534,-0.0171314,0.052904,-18.8941,67.607
23,6309.6,0.0499005,-0.0133255,0.0516491,-14.9515,69.3261
24,5011.9,0.0496266,-0.0101729,0.0506585,-11.5845,71.0403
25,3981.1,0.0497203,-0.00765739,0.0503065,-8.7553,72.7562
26,3162.3,0.0499012,-0.00560514,0.050215,-6.40887,74.5134
27,2511.9,0.050111,-0.00391468,0.0502637,-4.46688,76.2301
28,1995.3,0.0503374,-0.0025003,0.0503995,-2.8436,77.9357
29,1584.9,0.0506341,-0.00132594,0.0506515,-1.50004,79.6002
30,1258.9,0.0509483,-0.000349289,0.0509495,-0.3928,81.3108
31,1000,0.0514219,0.000563057,0.051425,0.627349,83.0335
32,794.33,0.051857,0.00123224,0.0518717,1.36122,84.887
33,630.96,0.0520774,0.001785,0.052108,1.96309,86.6329
34,501.19,0.0525919,0.00227044,0.0526409,2.47198,88.369
35,398.11,0.0531148,0.00269585,0.0531831,2.90557,90.0699
36,316.23,0.0536245,0.00307483,0.0537126,3.28175,91.7996
37,251.19,0.0541884,0.00342584,0.0542966,3.61748,93.5765
38,199.53,0.054784,0.0037617,0.054913,3.928,95.2979
39,158.49,0.0554039,0.00409074,0.0555547,4.22276,97.0438
40,125.89,0.0560288,0.00442669,0.0562034,4.51741,98.8265
41,100,0.0567041,0.00478126,0.0569054,4.81975,100.615
42,79.433,0.0574007,0.00513845,0.0576302,5.11542,102.438
43,63.096,0.0581433,0.00552359,0.0584051,5.42679,104.301
44,50.119,0.0589603,0.00593593,0.0592583,5.74899,106.408
45,39.811,0.0598577,0.00637455,0.0601962,6.0788,108.368
46,31.623,0.0608474,0.00682806,0.0612293,6.40273,110.392
47,25.119,0.0619225,0.00727256,0.0623481,6.69848,112.488
48,19.953,0.0631638,0.0076731,0.0636281,6.92632,114.773
49,15.849,0.0645169,0.00801389,0.0650127,7.08066,117.119
50,12.589,0.0659081,0.00824679,0.0664221,7.1321,119.646
51,10,0.0673762,0.00835766,0.0678926,7.07111,122.331
52,7.9433,0.0688654,0.00833169,0.0693675,6.89841,125.026
53,6.3096,0.0703453,0.00817634,0.0708189,6.62983,127.842
54,5.0119,0.071714,0.00789584,0.0721474,6.28306,130.628
55,3.9811,0.0729727,0.00751649,0.0733588,5.88096,133.455
56,3.1623,0.0741423,0.00707704,0.0744793,5.45248,136.404
57,2.5119,0.0751879,0.00661945,0.0754788,5.03127,139.364
58,1.9953,0.0761143,0.00616899,0.0763639,4.63364,142.426
59,1.5849,0.0769207,0.00576276,0.0771363,4.28449,145.573
60,1.2589,0.0775733,0.00541295,0.0777619,3.99154,148.879
61,1,0.0781383,0.00514599,0.0783076,3.76791,152.531
62,0.79433,0.0786707,0.00498445,0.0788284,3.62532,156.216
63,0.63096,0.0791176,0.00493093,0.0792711,3.56629,160.111
64,0.50119,0.0795949,0.00500081,0.0797519,3.59507,164.365
65,0.39811,0.0800507,0.00522734,0.0802212,3.73613,169.04
66,0.31623,0.0804939,0.00558886,0.0806877,3.97179,174.231
67,0.25119,0.0810228,0.00603686,0.0812474,4.26113,180.06
68,0.19953,0.0815497,0.0067522,0.0818288,4.73321,186.67
69,0.15849,0.0820468,0.0076408,0.0824018,5.32046,194.367
70,0.12589,0.0827189,0.00869343,0.0831745,5.99953,203.305
71,0.1,0.0831951,0.00998351,0.083792,6.84284,213.897