File: tutorials/data/eis/LFP_2_Pristine_35C.txt
Index,Frequency (Hz),Z' (Ω),-Z'' (Ω),Z (Ω),-Phase (°),Time (s)
1,1000000,1.19364,-1.38032,1.82485,-49.1483,18.9603
2,794330,0.858299,-1.25079,1.51696,-55.542,20.7965
3,630960,0.631747,-1.08046,1.2516,-59.6852,22.6182
4,501190,0.465257,-0.916,1.02739,-63.073,28.86
5,398110,0.348822,-0.764219,0.840064,-65.466,33.4377
6,316230,0.267814,-0.630888,0.685379,-66.9986,36.5389
7,251190,0.210823,-0.517038,0.558368,-67.8167,39.6486
8,199530,0.173278,-0.422759,0.456892,-67.7126,41.3624
9,158490,0.145745,-0.344908,0.374437,-67.0929,43.175
10,125890,0.12595,-0.280544,0.30752,-65.8224,44.8748
11,100000,0.111705,-0.227913,0.253816,-63.8895,48.1665
12,79433,0.101496,-0.184847,0.210879,-61.2296,49.9015
13,63096,0.0939835,-0.149735,0.176787,-57.8849,51.7022
14,50119,0.0884206,-0.121187,0.150015,-53.8846,53.5204
15,39811,0.0843045,-0.0980616,0.129319,-49.3141,55.3775
16,31623,0.0811347,-0.0792401,0.11341,-44.3231,57.1234
17,25119,0.0787622,-0.0639554,0.101458,-39.0768,58.8399
18,19953,0.076622,-0.0513247,0.0922234,-33.8158,60.6682
19,15849,0.075319,-0.0411887,0.0858456,-28.6723,62.4952
20,12589,0.0743485,-0.0329632,0.0813282,-23.9106,64.2343
21,10000,0.0736564,-0.0262967,0.0782099,-19.6475,67.45
22,7943.3,0.0732616,-0.0208698,0.0761762,-15.9005,69.0869
23,6309.6,0.0730777,-0.0164876,0.0749145,-12.7141,70.8077
24,5011.9,0.0726245,-0.0128728,0.0737565,-10.0514,72.6342
25,3981.1,0.0726663,-0.0100269,0.0733548,-7.85637,74.3453
26,3162.3,0.0726555,-0.00770393,0.0730628,-6.05267,76.0803
27,2511.9,0.0726702,-0.00581374,0.0729024,-4.57401,77.8779
28,1995.3,0.0727626,-0.00428422,0.0728886,-3.36965,79.5951
29,1584.9,0.0728748,-0.00304744,0.0729385,-2.39457,81.2869
30,1258.9,0.0729962,-0.00204697,0.0730249,-1.60627,83.0051
31,1000,0.0733381,-0.00117991,0.0733476,-0.921733,84.7274
32,794.33,0.0734681,-0.000527267,0.07347,-0.411194,86.5452
33,630.96,0.0737027,1.26067e-05,0.0737027,0.00980034,88.2822
34,501.19,0.0736166,0.000454924,0.073618,0.354063,90.0184
35,398.11,0.073925,0.000841786,0.0739298,0.6524,91.7183
36,316.23,0.0741756,0.00117691,0.074185,0.90901,93.4301
37,251.19,0.0744464,0.00146905,0.0744609,1.13047,95.2324
38,199.53,0.0748128,0.00172439,0.0748327,1.3204,96.9539
39,158.49,0.0751834,0.00194967,0.0752087,1.48547,98.6964
40,125.89,0.0755933,0.00213841,0.0756236,1.62037,100.484
41,100,0.0760233,0.00229737,0.076058,1.73091,102.272
42,79.433,0.0764626,0.0023956,0.0765001,1.79451,104.089
43,63.096,0.0769162,0.0024508,0.0769552,1.82501,105.967
44,50.119,0.0773534,0.00245938,0.0773925,1.82105,108.073
45,39.811,0.0778082,0.00242545,0.077846,1.78545,110.006
46,31.623,0.0781926,0.00235477,0.078228,1.72494,112.019
47,25.119,0.0785691,0.00225313,0.0786014,1.64262,114.146
48,19.953,0.0789203,0.00211744,0.0789487,1.53688,116.422
49,15.849,0.0793022,0.00197434,0.0793268,1.42616,118.766
50,12.589,0.0795421,0.00182593,0.0795631,1.31502,121.262
51,10,0.0797559,0.00168633,0.0797737,1.21126,123.942
52,7.9433,0.0799792,0.00155696,0.0799944,1.11524,126.652
53,6.3096,0.0801451,0.00144946,0.0801582,1.03611,129.458
54,5.0119,0.0802818,0.00135452,0.0802932,0.966606,132.246
55,3.9811,0.0804155,0.00128446,0.0804258,0.915094,135.061
56,3.1623,0.0805439,0.00123638,0.0805534,0.879446,137.997
57,2.5119,0.0806472,0.00122015,0.0806564,0.866788,141.015
58,1.9953,0.0807808,0.0012237,0.0807901,0.867873,144.083
59,1.5849,0.0808122,0.00125641,0.080822,0.890718,147.29
60,1.2589,0.0809353,0.00132347,0.0809461,0.936826,150.594
61,1,0.0810295,0.00141274,0.0810418,0.998844,154.247
62,0.79433,0.0811424,0.00156005,0.0811574,1.10144,157.939
63,0.63096,0.0812389,0.00174075,0.0812575,1.22752,161.811
64,0.50119,0.081296,0.00197456,0.08132,1.39136,166.057
65,0.39811,0.0814688,0.00224857,0.0814998,1.58098,170.757
66,0.31623,0.0816457,0.00261634,0.0816876,1.83542,175.923
67,0.25119,0.0817712,0.00305979,0.0818285,2.14295,181.719
68,0.19953,0.0820735,0.00359946,0.0821524,2.51119,188.372
69,0.15849,0.0822384,0.00425655,0.0823485,2.96291,196.059
70,0.12589,0.0824914,0.00503438,0.0826449,3.49238,205.01
71,0.1,0.0826995,0.00611854,0.0829256,4.23133,215.59