File: tutorials/data/eis/LFP_2_Pristine_5C.txt
Index,Frequency (Hz),Z' (Ω),-Z'' (Ω),Z (Ω),-Phase (°),Time (s)
1,1000000,1.18138,-1.41393,1.84251,-50.1204,38.2513
2,794330,0.838195,-1.27785,1.52823,-56.7375,40.1437
3,630960,0.606595,-1.09955,1.25577,-61.1155,43.6112
4,501190,0.437941,-0.927844,1.026,-64.7328,46.9115
5,398110,0.321184,-0.770013,0.834314,-67.3583,50.134
6,316230,0.241494,-0.631564,0.67616,-69.0744,54.5493
7,251190,0.186729,-0.513487,0.546385,-70.0163,57.6529
8,199530,0.152068,-0.416619,0.443505,-69.9477,59.3688
9,158490,0.127518,-0.337089,0.360402,-69.2788,61.1936
10,125890,0.110617,-0.2721,0.293725,-67.8767,62.8954
11,100000,0.098872,-0.219699,0.240921,-65.7706,66.1878
12,79433,0.0906377,-0.177323,0.199144,-62.9264,67.9001
13,63096,0.0846664,-0.143078,0.166252,-59.3851,69.7223
14,50119,0.0802307,-0.115436,0.140579,-55.1997,71.5411
15,39811,0.0768788,-0.0931407,0.120771,-50.4636,73.3625
16,31623,0.0743327,-0.0751402,0.105695,-45.3095,75.0835
17,25119,0.0720088,-0.0602668,0.0939007,-39.9272,76.8953
18,19953,0.0705152,-0.0484061,0.085531,-34.4682,78.7287
19,15849,0.0694013,-0.0387134,0.0794687,-29.1536,80.4691
20,12589,0.0685455,-0.0307664,0.0751336,-24.1728,82.1918
21,10000,0.0679459,-0.0242982,0.0721599,-19.6776,85.4571
22,7943.3,0.0676827,-0.0189928,0.0702971,-15.6749,87.1136
23,6309.6,0.0676072,-0.0146624,0.0691789,-12.2366,88.8362
24,5011.9,0.0673142,-0.0110651,0.0682176,-9.33477,90.5675
25,3981.1,0.067498,-0.00818029,0.0679919,-6.91015,92.3082
26,3162.3,0.0677423,-0.00579276,0.0679895,-4.88757,94.0055
27,2511.9,0.0680107,-0.00379763,0.0681167,-3.196,95.8015
28,1995.3,0.0683376,-0.00213294,0.0683709,-1.78772,97.4987
29,1584.9,0.0687436,-0.00073396,0.0687475,-0.611711,99.2201
30,1258.9,0.0692067,0.000454126,0.0692082,0.375962,100.906
31,1000,0.0698816,0.00152495,0.0698982,1.25011,102.623
32,794.33,0.0705196,0.00239176,0.0705602,1.94251,104.431
33,630.96,0.0709085,0.00312814,0.0709775,2.52598,106.145
34,501.19,0.0715868,0.00379452,0.0716873,3.03417,107.888
35,398.11,0.0723278,0.00439683,0.0724613,3.47875,109.579
36,316.23,0.073092,0.00495997,0.0732601,3.8821,111.292
37,251.19,0.0739409,0.00550809,0.0741458,4.26027,113.049
38,199.53,0.0747879,0.00605644,0.0750327,4.6298,114.782
39,158.49,0.0757101,0.00663067,0.0759999,5.00518,116.537
40,125.89,0.0766753,0.00723925,0.0770163,5.39355,118.375
41,100,0.0777076,0.00788943,0.0781071,5.79721,120.148
42,79.433,0.0788246,0.00856465,0.0792885,6.20112,121.955
43,63.096,0.0800344,0.00928256,0.0805709,6.61572,123.812
44,50.119,0.0813707,0.0100422,0.081988,7.03543,125.892
45,39.811,0.0827942,0.0108451,0.0835015,7.46264,127.859
46,31.623,0.0843506,0.0117031,0.0851586,7.89899,129.869
47,25.119,0.085979,0.012624,0.0869008,8.35283,131.974
48,19.953,0.0878559,0.0136084,0.0889036,8.80483,134.265
49,15.849,0.0898602,0.0146674,0.0910494,9.27036,136.61
50,12.589,0.0920957,0.0157653,0.0934353,9.71393,139.083
51,10,0.0946591,0.0168764,0.0961518,10.1088,141.775
52,7.9433,0.0974259,0.0178966,0.099056,10.4089,144.526
53,6.3096,0.100577,0.0187804,0.102315,10.5768,147.336
54,5.0119,0.104376,0.0194962,0.106181,10.5802,150.132
55,3.9811,0.10786,0.0198244,0.109667,10.4146,153.02
56,3.1623,0.111352,0.0197972,0.113098,10.0813,155.952
57,2.5119,0.114838,0.0194609,0.116476,9.61819,158.953
58,1.9953,0.118119,0.0188165,0.119608,9.05123,162.038
59,1.5849,0.121146,0.0179469,0.122468,8.42669,165.165
60,1.2589,0.123958,0.0169379,0.12511,7.78083,168.475
61,1,0.126329,0.0158435,0.127319,7.14838,172.115
62,0.79433,0.128515,0.014785,0.129363,6.56273,175.813
63,0.63096,0.130263,0.0138218,0.130995,6.05678,179.698
64,0.50119,0.131923,0.013131,0.132575,5.68425,183.962
65,0.39811,0.133251,0.0125594,0.133842,5.38445,188.578
66,0.31623,0.134505,0.0122742,0.135063,5.21407,193.743
67,0.25119,0.135742,0.0123761,0.136305,5.20946,199.56
68,0.19953,0.13681,0.0125779,0.137387,5.25284,206.157
69,0.15849,0.13788,0.0132728,0.138518,5.49853,213.874
70,0.12589,0.139042,0.0143447,0.13978,5.89026,222.791
71,0.1,0.140379,0.0155737,0.14124,6.33054,233.446