File: tutorials/data/eis/LFP_1_Pristine_45C.txt
Index,Frequency (Hz),Z' (Ω),-Z'' (Ω),Z (Ω),-Phase (°),Time (s)
1,1000000,1.21648,-1.45708,1.89814,-50.1423,14.4481
2,794330,0.863409,-1.31369,1.57202,-56.6855,16.3251
3,630960,0.625398,-1.13529,1.29615,-61.1509,19.7922
4,501190,0.450227,-0.958862,1.0593,-64.8479,23.1466
5,398110,0.329179,-0.79641,0.861758,-67.5433,26.3584
6,316230,0.246337,-0.653851,0.698715,-69.3562,30.8491
7,251190,0.189271,-0.531853,0.564527,-70.4109,33.9774
8,199530,0.153077,-0.431688,0.458025,-70.4755,35.7591
9,158490,0.127473,-0.349713,0.372221,-69.9728,37.5693
10,125890,0.109743,-0.282707,0.30326,-68.7844,39.2802
11,100000,0.0972963,-0.228504,0.248356,-66.9358,42.4928
12,79433,0.0884832,-0.1848,0.204891,-64.4146,44.2138
13,63096,0.0820216,-0.149445,0.170474,-61.2401,46.0262
14,50119,0.0771307,-0.120967,0.143465,-57.4777,47.8626
15,39811,0.0733074,-0.0979439,0.12234,-53.1865,49.5901
16,31623,0.0703476,-0.079263,0.105978,-48.4103,51.313
17,25119,0.0677195,-0.0638188,0.0930525,-43.3014,53.1297
18,19953,0.0659182,-0.0514574,0.0836246,-37.9765,54.9919
19,15849,0.064543,-0.0413841,0.076671,-32.6675,56.7142
20,12589,0.0635422,-0.0331761,0.0716817,-27.5695,58.5343
21,10000,0.0627741,-0.0264745,0.0681285,-22.8672,61.7508
22,7943.3,0.0623397,-0.0210526,0.0657985,-18.6602,63.3707
23,6309.6,0.0620705,-0.0166796,0.0642725,-15.0412,65.0864
24,5011.9,0.061637,-0.0130941,0.0630125,-11.9935,66.8033
25,3981.1,0.0615579,-0.0102607,0.0624071,-9.46327,68.5306
26,3162.3,0.0616051,-0.00798841,0.0621209,-7.38839,70.2404
27,2511.9,0.0616043,-0.00611525,0.061907,-5.66899,72.0422
28,1995.3,0.0616209,-0.00459991,0.0617924,-4.26912,73.8099
29,1584.9,0.0616797,-0.00337038,0.0617717,-3.12771,75.5011
30,1258.9,0.0617392,-0.00236923,0.0617846,-2.19764,77.2008
31,1000,0.0620353,-0.00149277,0.0620533,-1.37846,78.9438
32,794.33,0.0622029,-0.000831786,0.0622084,-0.766122,80.7996
33,630.96,0.0621229,-0.000288419,0.0621236,-0.266006,82.5301
34,501.19,0.0623233,0.000171748,0.0623235,0.157893,84.2517
35,398.11,0.0625549,0.000557826,0.0625574,0.510915,85.9543
36,316.23,0.062849,0.000883074,0.0628552,0.804994,87.6931
37,251.19,0.0631787,0.00115031,0.0631892,1.04308,89.439
38,199.53,0.0634888,0.00136685,0.0635035,1.23333,91.1701
39,158.49,0.0638231,0.00153219,0.0638414,1.37523,92.9326
40,125.89,0.0641371,0.00164909,0.0641583,1.47286,94.7277
41,100,0.0645006,0.00172483,0.0645236,1.5318,96.4987
42,79.433,0.064848,0.00174204,0.0648714,1.53879,98.3345
43,63.096,0.0651424,0.00171642,0.065165,1.50932,100.213
44,50.119,0.0654466,0.00166289,0.0654677,1.45547,102.286
45,39.811,0.0657042,0.00158253,0.0657233,1.37974,104.238
46,31.623,0.0659611,0.00148606,0.0659778,1.29062,106.312
47,25.119,0.0662137,0.00138133,0.0662281,1.19512,108.375
48,19.953,0.0664165,0.00126598,0.0664285,1.09199,110.691
49,15.849,0.0665766,0.00116074,0.0665867,0.998832,113.091
50,12.589,0.0667413,0.00106746,0.0667498,0.916311,115.559
51,10,0.0668532,0.000988416,0.0668605,0.847049,118.249
52,7.9433,0.0669285,0.00092286,0.0669349,0.789987,120.996
53,6.3096,0.0670527,0.000871772,0.0670583,0.744877,123.807
54,5.0119,0.0671409,0.000836782,0.0671461,0.714045,126.671
55,3.9811,0.0672196,0.000818072,0.0672246,0.697263,129.483
56,3.1623,0.0673325,0.00081979,0.0673375,0.697555,132.44
57,2.5119,0.0674094,0.000840916,0.0674146,0.714714,135.442
58,1.9953,0.0674696,0.00087722,0.0674753,0.744901,138.566
59,1.5849,0.0675195,0.000939951,0.0675261,0.797573,141.679
60,1.2589,0.0676037,0.00102564,0.0676115,0.869191,144.996
61,1,0.0677163,0.00112918,0.0677257,0.955331,148.736
62,0.79433,0.0677954,0.00128112,0.0678075,1.08258,152.426
63,0.63096,0.0678614,0.00145974,0.0678771,1.23228,156.304
64,0.50119,0.0679381,0.00171271,0.0679597,1.44411,160.577
65,0.39811,0.0680952,0.00196816,0.0681236,1.65556,165.26
66,0.31623,0.0682206,0.00231057,0.0682597,1.93982,170.454
67,0.25119,0.0683651,0.00276719,0.0684211,2.31787,176.318
68,0.19953,0.0685488,0.00323269,0.068625,2.70001,182.945
69,0.15849,0.0687412,0.00386086,0.0688495,3.21465,190.642
70,0.12589,0.068934,0.00462152,0.0690887,3.83552,199.57
71,0.1,0.0692374,0.00562163,0.0694652,4.64187,210.14