File: tutorials/data/eis/LFP_3_Pristine_45C.txt
Index,Frequency (Hz),Z' (Ω),-Z'' (Ω),Z (Ω),-Phase (°),Time (s)
1,1000000,1.22611,-1.49493,1.93344,-50.642,14.3634
2,794330,0.865635,-1.34758,1.60166,-57.2848,16.2008
3,630960,0.622019,-1.16384,1.31964,-61.8776,19.6183
4,501190,0.442919,-0.982386,1.07762,-65.7313,22.9462
5,398110,0.318913,-0.815693,0.87582,-68.6459,27.5553
6,316230,0.234246,-0.669147,0.708963,-70.7065,30.6792
7,251190,0.17613,-0.544326,0.572113,-72.0697,33.7733
8,199530,0.139154,-0.44172,0.463121,-72.5141,35.496
9,158490,0.113031,-0.357544,0.374985,-72.4566,37.3591
10,125890,0.0950825,-0.288727,0.30398,-71.7725,39.0682
11,100000,0.0826109,-0.23316,0.247362,-70.4902,42.3061
12,79433,0.0738413,-0.188198,0.202166,-68.5769,44.0305
13,63096,0.0675,-0.15202,0.166332,-66.0578,45.8228
14,50119,0.0627907,-0.122881,0.137995,-62.9336,47.6352
15,39811,0.059163,-0.0993798,0.115657,-59.2337,49.4847
16,31623,0.056351,-0.0803861,0.09817,-54.9694,51.2062
17,25119,0.0538486,-0.0646646,0.0841498,-50.2146,53.0284
18,19953,0.0521463,-0.0521659,0.0737598,-45.0108,54.7649
19,15849,0.0508252,-0.0419807,0.0659211,-39.5561,56.4925
20,12589,0.0498754,-0.0336882,0.0601868,-34.037,58.2144
21,10000,0.0489685,-0.0268881,0.0558649,-28.7708,61.3686
22,7943.3,0.0485338,-0.0214035,0.0530438,-23.7975,63.0192
23,6309.6,0.0482891,-0.0169739,0.0511855,-19.3668,64.7354
24,5011.9,0.0478646,-0.0133183,0.049683,-15.5492,66.5474
25,3981.1,0.0477961,-0.0104467,0.0489244,-12.3291,68.2673
26,3162.3,0.0478294,-0.00814466,0.0485179,-9.66395,69.9751
27,2511.9,0.0478692,-0.00628389,0.0482799,-7.47857,71.7068
28,1995.3,0.0479136,-0.00475534,0.048149,-5.66794,73.4088
29,1584.9,0.0479508,-0.00350672,0.0480788,-4.18269,75.1029
30,1258.9,0.0480693,-0.00249697,0.0481341,-2.97357,76.8243
31,1000,0.0482675,-0.00157242,0.0482931,-1.86587,78.5416
32,794.33,0.0484511,-0.000914245,0.0484597,-1.08101,80.3837
33,630.96,0.0484131,-0.000372679,0.0484146,-0.441048,82.0977
34,501.19,0.0485964,8.39e-05,0.0485964,0.0989192,83.8235
35,398.11,0.0488383,0.000469627,0.0488406,0.550936,85.52
36,316.23,0.0490835,0.000795593,0.0490899,0.928625,87.262
37,251.19,0.0493905,0.00106669,0.049402,1.23723,89.0151
38,199.53,0.0496775,0.00128688,0.0496942,1.4839,90.7438
39,158.49,0.0500086,0.00146105,0.05003,1.67348,92.4893
40,125.89,0.050344,0.00158855,0.050369,1.80731,94.3042
41,100,0.0507224,0.00167743,0.0507501,1.89413,96.0805
42,79.433,0.0510539,0.00170483,0.0510824,1.91255,97.9024
43,63.096,0.051351,0.00169106,0.0513789,1.88614,99.7706
44,50.119,0.0516618,0.00164543,0.051688,1.82425,101.847
45,39.811,0.0519592,0.00157355,0.051983,1.73463,103.791
46,31.623,0.0521771,0.00148149,0.0521982,1.62639,105.836
47,25.119,0.052398,0.00138064,0.0524162,1.50934,107.919
48,19.953,0.0526139,0.0012678,0.0526292,1.38035,110.222
49,15.849,0.0528061,0.00117053,0.0528191,1.26984,112.575
50,12.589,0.0529327,0.0010768,0.0529437,1.16539,115.04
51,10,0.0530594,0.000994473,0.0530687,1.07375,117.736
52,7.9433,0.0531257,0.000929475,0.0531338,1.00233,120.476
53,6.3096,0.0532414,0.000879335,0.0532487,0.946211,123.291
54,5.0119,0.0533155,0.000845798,0.0533222,0.908865,126.18
55,3.9811,0.0533961,0.000827236,0.0534025,0.887581,129.002
56,3.1623,0.053458,0.000825099,0.0534644,0.884263,131.957
57,2.5119,0.0535186,0.000842332,0.0535252,0.901708,134.944
58,1.9953,0.0535801,0.000880682,0.0535874,0.941671,138.006
59,1.5849,0.0536397,0.000939439,0.0536479,1.00337,141.138
60,1.2589,0.0536977,0.0010213,0.0537074,1.0896,144.422
61,1,0.0537588,0.00112417,0.0537706,1.19796,148.067
62,0.79433,0.0538369,0.00127976,0.0538521,1.36172,151.708
63,0.63096,0.0539281,0.00146097,0.0539479,1.55182,155.588
64,0.50119,0.054007,0.00169247,0.0540335,1.79495,159.856
65,0.39811,0.0541438,0.0019674,0.0541795,2.08101,164.52
66,0.31623,0.054261,0.00231574,0.0543104,2.44378,169.71
67,0.25119,0.0543811,0.0027232,0.0544493,2.86676,175.555
68,0.19953,0.0545887,0.003244,0.054685,3.40087,182.224
69,0.15849,0.0547628,0.00385812,0.0548986,4.02991,189.97
70,0.12589,0.0549874,0.00457156,0.0551772,4.75254,198.906
71,0.1,0.0551567,0.00555947,0.0554361,5.75564,209.564