File: tutorials/data/eis/LFP_2_Pristine_25C.txt
Index,Frequency (Hz),Z' (Ω),-Z'' (Ω),Z (Ω),-Phase (°),Time (s)
1,1000000,1.14869,-1.35816,1.77879,-49.7764,14.4845
2,794330,0.819296,-1.22855,1.47668,-56.3014,16.3354
3,630960,0.597332,-1.05964,1.21641,-60.5896,19.7633
4,501190,0.434429,-0.895861,0.995638,-64.1299,23.0716
5,398110,0.321311,-0.74593,0.812189,-66.6959,27.671
6,316230,0.243363,-0.613827,0.66031,-68.3733,32.1196
7,251190,0.189186,-0.501532,0.536028,-69.3327,35.2328
8,199530,0.154142,-0.409224,0.437291,-69.3602,36.9446
9,158490,0.128548,-0.333199,0.357136,-68.9034,38.7883
10,125890,0.110304,-0.271026,0.292613,-67.8543,40.5148
11,100000,0.0969824,-0.220481,0.240868,-66.2569,43.8259
12,79433,0.0871783,-0.179083,0.199175,-64.043,45.5613
13,63096,0.079928,-0.145551,0.166053,-61.227,47.3034
14,50119,0.0743748,-0.118097,0.139566,-57.7982,49.1207
15,39811,0.070142,-0.0958002,0.118733,-53.7895,50.9876
16,31623,0.0668934,-0.0776067,0.102457,-49.2402,52.7322
17,25119,0.0640955,-0.0624852,0.0895133,-44.2711,54.5493
18,19953,0.0621979,-0.0503742,0.0800383,-39.0041,56.3742
19,15849,0.0607876,-0.0404826,0.073034,-33.6624,58.1122
20,12589,0.0597449,-0.0323972,0.0679635,-28.4692,59.8419
21,10000,0.0588534,-0.0257747,0.06425,-23.6509,63.0706
22,7943.3,0.0584004,-0.0203849,0.0618559,-19.2418,64.7104
23,6309.6,0.0582171,-0.0160403,0.0603864,-15.4043,66.447
24,5011.9,0.0578269,-0.0124394,0.0591497,-12.1401,68.2746
25,3981.1,0.0577998,-0.009577,0.0585879,-9.40801,70.0248
26,3162.3,0.0579007,-0.00726522,0.0583547,-7.15194,71.7372
27,2511.9,0.0580035,-0.00535783,0.0582504,-5.27748,73.5543
28,1995.3,0.0581366,-0.00379102,0.0582601,-3.73091,75.2746
29,1584.9,0.0583579,-0.00251561,0.0584121,-2.4683,76.9847
30,1258.9,0.0585241,-0.0014704,0.0585426,-1.43923,78.6805
31,1000,0.0589003,-0.000539948,0.0589028,-0.525224,80.4055
32,794.33,0.0592086,0.000143235,0.0592088,0.138607,82.2569
33,630.96,0.0592902,0.000694899,0.0592943,0.671492,83.9731
34,501.19,0.0596251,0.00116552,0.0596364,1.11984,85.7094
35,398.11,0.0599521,0.00156606,0.0599725,1.49633,87.4603
36,316.23,0.0603397,0.0019188,0.0603702,1.82139,89.2295
37,251.19,0.0607302,0.0022371,0.0607714,2.10964,90.9766
38,199.53,0.0611467,0.00253553,0.0611993,2.37449,92.7131
39,158.49,0.0615815,0.00282316,0.0616462,2.62485,94.4692
40,125.89,0.0620994,0.00310829,0.0621771,2.86546,96.2916
41,100,0.0626013,0.00339236,0.0626932,3.10182,98.0882
42,79.433,0.0631485,0.00365187,0.063254,3.30972,99.9165
43,63.096,0.0637757,0.00389873,0.0638947,3.49825,101.846
44,50.119,0.0643791,0.00411315,0.0645104,3.65563,103.928
45,39.811,0.0651096,0.00429454,0.065251,3.77369,105.897
46,31.623,0.0658797,0.00442177,0.0660279,3.83987,107.944
47,25.119,0.0666549,0.00448866,0.0668058,3.85258,110.024
48,19.953,0.0673946,0.00446521,0.0675424,3.79057,112.345
49,15.849,0.0682215,0.00438542,0.0683623,3.67803,114.713
50,12.589,0.0689944,0.00424362,0.0691248,3.51964,117.176
51,10,0.0696737,0.00404229,0.0697909,3.32043,119.871
52,7.9433,0.0703022,0.00380398,0.070405,3.0972,122.614
53,6.3096,0.0708494,0.00354394,0.070938,2.86359,125.43
54,5.0119,0.0713343,0.00328476,0.0714099,2.63646,128.268
55,3.9811,0.0717533,0.0030388,0.0718176,2.42506,131.092
56,3.1623,0.0721361,0.002817,0.0721911,2.23633,134.054
57,2.5119,0.0724297,0.00263306,0.0724776,2.08197,137.075
58,1.9953,0.0726708,0.00249643,0.0727136,1.96749,140.173
59,1.5849,0.0729693,0.00240309,0.0730089,1.88623,143.382
60,1.2589,0.0731624,0.00235657,0.0732004,1.84486,146.704
61,1,0.0733402,0.00236327,0.0733783,1.84562,150.367
62,0.79433,0.0735645,0.00243512,0.0736048,1.89591,154.098
63,0.63096,0.0737251,0.00256225,0.0737696,1.99046,157.968
64,0.50119,0.0739557,0.00278432,0.0740081,2.15608,162.246
65,0.39811,0.0741673,0.00304623,0.0742298,2.35196,166.911
66,0.31623,0.0743868,0.00340767,0.0744648,2.6229,172.117
67,0.25119,0.0746501,0.00393942,0.074754,3.0208,177.938
68,0.19953,0.074895,0.00445231,0.0750272,3.40208,184.562
69,0.15849,0.0751865,0.00519371,0.0753657,3.95158,192.276
70,0.12589,0.075459,0.00612829,0.0757075,4.643,201.297
71,0.1,0.0759489,0.00726113,0.0762952,5.46119,211.838