File: tutorials/data/eis/LFP_1_Pristine_5C.txt
Index,Frequency (Hz),Z' (Ω),-Z'' (Ω),Z (Ω),-Phase (°),Time (s)
1,1000000,1.17298,-1.41588,1.83864,-50.3602,18.9939
2,794330,0.830916,-1.2795,1.52563,-57,20.8499
3,630960,0.59908,-1.10072,1.25319,-61.4422,24.2857
4,501190,0.430195,-0.928547,1.02336,-65.1418,27.6371
5,398110,0.313378,-0.770844,0.832109,-67.8764,32.2588
6,316230,0.233617,-0.63201,0.673805,-69.7136,35.3814
7,251190,0.178867,-0.513704,0.543954,-70.8024,38.5089
8,199530,0.144163,-0.41646,0.440706,-70.9061,40.2701
9,158490,0.119743,-0.336825,0.357477,-70.4294,42.0942
10,125890,0.103037,-0.271824,0.290697,-69.2404,43.8264
11,100000,0.091398,-0.219205,0.237496,-67.3662,47.1658
12,79433,0.0833133,-0.176734,0.195386,-64.7605,48.8954
13,63096,0.077553,-0.142574,0.162302,-61.4561,50.7
14,50119,0.073275,-0.115003,0.136363,-57.4964,52.5157
15,39811,0.0700155,-0.0927836,0.116237,-52.9614,54.2458
16,31623,0.0675286,-0.0748858,0.100837,-47.9573,55.9838
17,25119,0.0652467,-0.060105,0.0887116,-42.6512,57.7282
18,19953,0.0637284,-0.0483124,0.0799712,-37.1657,59.4554
19,15849,0.0625504,-0.0386674,0.0735372,-31.7235,61.1882
20,12589,0.0617073,-0.0307908,0.0689628,-26.5184,62.9888
21,10000,0.0610733,-0.0243402,0.0657449,-21.7293,66.2214
22,7943.3,0.0607489,-0.01905,0.0636658,-17.4107,67.8523
23,6309.6,0.0606656,-0.0147417,0.062431,-13.6581,69.6018
24,5011.9,0.0603626,-0.0111571,0.0613851,-10.4721,71.3389
25,3981.1,0.0605405,-0.00828941,0.0611053,-7.79665,73.0583
26,3162.3,0.0607704,-0.00592714,0.0610588,-5.57063,74.8534
27,2511.9,0.0610131,-0.00394604,0.0611405,-3.70047,76.6736
28,1995.3,0.0613145,-0.00229262,0.0613573,-2.14136,78.4061
29,1584.9,0.0616848,-0.000905113,0.0616914,-0.840652,80.0909
30,1258.9,0.0621037,0.000267105,0.0621043,0.246425,81.8132
31,1000,0.0627869,0.00133512,0.0628011,1.21817,83.5422
32,794.33,0.0633508,0.00218131,0.0633883,1.97205,85.3555
33,630.96,0.0637489,0.00289804,0.0638148,2.60288,87.0553
34,501.19,0.0643851,0.00354564,0.0644827,3.15205,88.803
35,398.11,0.0651139,0.00413343,0.065245,3.63226,90.5
36,316.23,0.0658426,0.00467945,0.0660087,4.06518,92.2203
37,251.19,0.0665852,0.00520749,0.0667885,4.47188,93.9734
38,199.53,0.0673999,0.00573704,0.0676436,4.86525,95.7095
39,158.49,0.0682914,0.00629087,0.0685806,5.26312,97.4723
40,125.89,0.0692058,0.00687188,0.0695462,5.67066,99.2724
41,100,0.070241,0.00749719,0.0706399,6.09241,101.044
42,79.433,0.0713024,0.00814059,0.0717656,6.51325,102.889
43,63.096,0.0724302,0.00881582,0.0729648,6.9396,104.758
44,50.119,0.0736826,0.00953448,0.0742969,7.37307,106.826
45,39.811,0.0750475,0.0102993,0.075751,7.81428,108.777
46,31.623,0.0765143,0.0111187,0.0773179,8.26806,110.795
47,25.119,0.0781216,0.012009,0.0790392,8.7392,112.862
48,19.953,0.0798629,0.0129492,0.0809058,9.20995,115.158
49,15.849,0.0818304,0.0139678,0.0830139,9.68655,117.493
50,12.589,0.0839993,0.0150231,0.0853321,10.14,119.96
51,10,0.0863992,0.0160514,0.0878776,10.5245,122.665
52,7.9433,0.0891418,0.0170181,0.0907517,10.8083,125.375
53,6.3096,0.0921574,0.0178153,0.0938635,10.9411,128.236
54,5.0119,0.0952878,0.0183615,0.0970408,10.9069,131.053
55,3.9811,0.0986128,0.0186252,0.100356,10.6956,133.869
56,3.1623,0.1019,0.018556,0.103576,10.3205,136.79
57,2.5119,0.105671,0.0182934,0.107243,9.82149,139.786
58,1.9953,0.108795,0.0176737,0.110221,9.22712,142.873
59,1.5849,0.111706,0.0168436,0.112969,8.57474,145.999
60,1.2589,0.114253,0.0158808,0.115351,7.91328,149.281
61,1,0.116595,0.0148786,0.117541,7.27218,153.003
62,0.79433,0.118645,0.0139168,0.119458,6.6901,156.657
63,0.63096,0.120365,0.0130505,0.121071,6.18805,160.555
64,0.50119,0.121887,0.0124344,0.122519,5.82494,164.788
65,0.39811,0.123248,0.0119364,0.123825,5.53176,169.461
66,0.31623,0.124428,0.011714,0.124978,5.37816,174.64
67,0.25119,0.125626,0.0118947,0.126188,5.40882,180.451
68,0.19953,0.126828,0.0121246,0.127406,5.46082,187.048
69,0.15849,0.127939,0.0128457,0.128582,5.73358,194.735
70,0.12589,0.129168,0.0139706,0.129921,6.17301,203.727
71,0.1,0.130558,0.0153261,0.131454,6.69526,214.304