File: tutorials/data/eis/NCA_3_Pristine_15C.txt
Index,Frequency (Hz),Z' (Ω),-Z'' (Ω),Z (Ω),-Phase (°),Time (s)
1,1000000,1.22588,-1.19884,1.71464,-44.3611,14.3206
2,794330,0.912431,-1.12461,1.4482,-50.9465,16.1838
3,630960,0.688017,-0.997857,1.21206,-55.414,19.618
4,501190,0.51578,-0.864279,1.00648,-59.1723,23.1792
5,398110,0.390716,-0.733712,0.831259,-61.9638,27.9161
6,316230,0.301482,-0.614159,0.684166,-63.8542,32.4221
7,251190,0.237027,-0.508473,0.561005,-65.0072,35.5725
8,199530,0.193992,-0.419736,0.462397,-65.1948,37.3688
9,158490,0.161805,-0.345239,0.381276,-64.8887,39.2972
10,125890,0.138385,-0.283276,0.315271,-63.9637,41.0404
11,100000,0.121076,-0.231978,0.261673,-62.4386,44.2524
12,79433,0.108245,-0.18931,0.218072,-60.2397,45.983
13,63096,0.0988651,-0.154378,0.183322,-57.3641,47.8512
14,50119,0.0917976,-0.125481,0.155474,-53.812,49.658
15,39811,0.0865945,-0.101897,0.133722,-49.6414,51.4817
16,31623,0.0826861,-0.0826389,0.116902,-44.9836,53.2137
17,25119,0.0797529,-0.0669635,0.104138,-40.0181,54.9711
18,19953,0.0770735,-0.0539157,0.0940597,-34.9742,56.6972
19,15849,0.0753188,-0.04346,0.086958,-29.9855,58.5323
20,12589,0.0739776,-0.034855,0.0817775,-25.2277,60.3929
21,10000,0.0730859,-0.0277405,0.0781734,-20.7848,63.5359
22,7943.3,0.0724355,-0.021877,0.0756671,-16.8054,65.1661
23,6309.6,0.07209,-0.0170522,0.0740793,-13.3082,66.9063
24,5011.9,0.0715665,-0.0130098,0.0727394,-10.3031,68.6468
25,3981.1,0.0715932,-0.00975486,0.0722547,-7.759,70.3632
26,3162.3,0.0717218,-0.0070551,0.072068,-5.61797,72.0805
27,2511.9,0.0719157,-0.0048117,0.0720765,-3.82781,73.844
28,1995.3,0.0722254,-0.00295379,0.0722858,-2.34191,75.5813
29,1584.9,0.072602,-0.00140304,0.0726156,-1.10711,77.2828
30,1258.9,0.0730428,-9.73611e-05,0.0730428,-0.0763714,78.9878
31,1000,0.0738172,0.00105438,0.0738248,0.818334,80.7377
32,794.33,0.0743721,0.00200016,0.074399,1.54054,82.5642
33,630.96,0.0750656,0.00282683,0.0751188,2.15663,84.2902
34,501.19,0.075416,0.00353222,0.0754987,2.68157,86.0904
35,398.11,0.0761465,0.00418539,0.0762614,3.14609,87.7973
36,316.23,0.0769703,0.00477854,0.0771185,3.55253,89.5308
37,251.19,0.0778969,0.00532395,0.0780787,3.90986,91.3017
38,199.53,0.0788222,0.00582022,0.0790368,4.22304,93.088
39,158.49,0.0798701,0.00627731,0.0801164,4.49387,94.8808
40,125.89,0.0808677,0.00668854,0.0811439,4.72815,96.6766
41,100,0.0819792,0.00706954,0.0822834,4.92876,98.4739
42,79.433,0.0831103,0.00740102,0.0834392,5.0888,100.296
43,63.096,0.0842354,0.00770125,0.0845867,5.22377,102.17
44,50.119,0.085421,0.00798151,0.0857931,5.33806,104.249
45,39.811,0.0866322,0.00825644,0.0870248,5.4441,106.26
46,31.623,0.0878785,0.00853165,0.0882917,5.54516,108.31
47,25.119,0.0890473,0.00879851,0.0894809,5.64292,110.309
48,19.953,0.0903086,0.00907041,0.090763,5.73544,112.658
49,15.849,0.0916562,0.00937031,0.0921339,5.83725,115.004
50,12.589,0.0929413,0.0096844,0.0934445,5.9487,117.479
51,10,0.0942239,0.0100344,0.0947567,6.07883,120.217
52,7.9433,0.0954825,0.0104452,0.0960521,6.243,122.942
53,6.3096,0.0966901,0.0109616,0.0973094,6.46794,125.802
54,5.0119,0.0978498,0.0116293,0.0985384,6.77773,128.672
55,3.9811,0.0989466,0.0125182,0.0997353,7.21045,131.518
56,3.1623,0.1001,0.0137251,0.101037,7.80733,134.465
57,2.5119,0.101757,0.0153743,0.102912,8.59178,137.488
58,1.9953,0.102963,0.0174322,0.104428,9.60939,140.597
59,1.5849,0.104385,0.020031,0.10629,10.8627,143.77
60,1.2589,0.105928,0.0232913,0.108459,12.4008,147.035
61,1,0.107897,0.0273333,0.111305,14.2156,150.702
62,0.79433,0.110452,0.0320383,0.115005,16.1756,154.34
63,0.63096,0.11355,0.0377491,0.11966,18.3892,158.252
64,0.50119,0.11769,0.0447542,0.125912,20.8204,162.509
65,0.39811,0.122784,0.0523728,0.133487,23.1004,167.2
66,0.31623,0.129735,0.0610592,0.143385,25.2038,172.359
67,0.25119,0.138512,0.0708962,0.155601,27.1053,178.211
68,0.19953,0.149405,0.0802082,0.169574,28.2291,184.834
69,0.15849,0.162703,0.0898021,0.18584,28.896,192.479
70,0.12589,0.178316,0.0993517,0.204126,29.1251,201.43
71,0.1,0.197317,0.106911,0.224419,28.4498,212.054