File: tutorials/data/eis/NCA_1_Pristine_25C.txt
Index,Frequency (Hz),Z' (Ω),-Z'' (Ω),Z (Ω),-Phase (°),Time (s)
1,1000000,1.32835,-1.31759,1.87098,-44.7669,18.9701
2,794330,0.992618,-1.23706,1.58607,-51.2564,20.8118
3,630960,0.746655,-1.10158,1.33078,-55.8704,24.2321
4,501190,0.555691,-0.95665,1.10633,-59.8489,30.3821
5,398110,0.416679,-0.81257,0.913177,-62.8516,34.9696
6,316230,0.317584,-0.679516,0.750068,-64.9501,38.1544
7,251190,0.246797,-0.562558,0.614312,-66.3127,41.2737
8,199530,0.199415,-0.46444,0.505441,-66.7629,44.5013
9,158490,0.164126,-0.382071,0.415831,-66.7531,46.2136
10,125890,0.138435,-0.313828,0.343005,-66.1969,47.9213
11,100000,0.119272,-0.257339,0.283636,-65.1332,51.2416
12,79433,0.104965,-0.210738,0.235432,-63.5229,52.9528
13,63096,0.0941419,-0.172393,0.196423,-61.3615,54.7666
14,50119,0.0858827,-0.140789,0.164916,-58.6164,56.5853
15,39811,0.0795746,-0.114812,0.139692,-55.2747,58.3198
16,31623,0.0747621,-0.0935052,0.119719,-51.3559,60.1267
17,25119,0.0710221,-0.0759512,0.103984,-46.9208,61.9892
18,19953,0.0678298,-0.0613223,0.0914402,-42.1155,63.7061
19,15849,0.0656654,-0.0495521,0.082264,-37.0388,65.5276
20,12589,0.0640338,-0.0398519,0.0754221,-31.8964,67.2806
21,10000,0.0628831,-0.0318496,0.0704889,-26.8617,70.4126
22,7943.3,0.0620708,-0.0252564,0.0670125,-22.1412,72.0316
23,6309.6,0.0616091,-0.0198655,0.0647326,-17.8716,73.7584
24,5011.9,0.0610521,-0.015371,0.0629574,-14.1316,75.4952
25,3981.1,0.060988,-0.0117824,0.0621157,-10.9344,77.1994
26,3162.3,0.0610517,-0.00885336,0.0616903,-8.25117,78.9056
27,2511.9,0.0611888,-0.00643596,0.0615263,-6.00442,80.6771
28,1995.3,0.0614221,-0.0044568,0.0615836,-4.15012,82.3879
29,1584.9,0.0617102,-0.0028345,0.0617753,-2.62989,84.0527
30,1258.9,0.0620486,-0.00150257,0.0620667,-1.3872,85.7535
31,1000,0.062633,-0.000352989,0.062634,-0.322906,87.5288
32,794.33,0.0631078,0.000539565,0.0631101,0.489861,89.3533
33,630.96,0.0633605,0.0012684,0.0633732,1.14684,91.0596
34,501.19,0.0638695,0.00188539,0.0638973,1.69085,92.8126
35,398.11,0.0644382,0.00239908,0.0644829,2.13218,94.5142
36,316.23,0.0650398,0.00283026,0.0651013,2.4917,96.245
37,251.19,0.0656426,0.00319442,0.0657203,2.78603,98.0064
38,199.53,0.0662852,0.00350511,0.0663778,3.02694,99.7782
39,158.49,0.066896,0.00377442,0.0670024,3.22933,101.515
40,125.89,0.0675599,0.00401616,0.0676792,3.402,103.302
41,100,0.0682334,0.00424471,0.0683654,3.55971,105.08
42,79.433,0.0689099,0.00444064,0.0690528,3.68712,106.924
43,63.096,0.0695774,0.00462729,0.0697311,3.80489,108.786
44,50.119,0.0702717,0.00480441,0.0704357,3.91117,110.849
45,39.811,0.0710204,0.00497727,0.0711946,4.00886,112.849
46,31.623,0.0717426,0.00513917,0.0719265,4.09729,114.873
47,25.119,0.0724774,0.00528745,0.07267,4.17252,116.952
48,19.953,0.073202,0.00543382,0.0734034,4.24531,119.297
49,15.849,0.0739161,0.00560617,0.0741284,4.3373,121.639
50,12.589,0.0745619,0.00582693,0.0747892,4.46852,124.097
51,10,0.0751657,0.00612966,0.0754152,4.66208,126.816
52,7.9433,0.0757525,0.00655672,0.0760357,4.94688,129.53
53,6.3096,0.0763545,0.00714967,0.0766885,5.34945,132.375
54,5.0119,0.0769053,0.00795136,0.0773152,5.90293,135.149
55,3.9811,0.0775093,0.00900413,0.0780306,6.62626,137.977
56,3.1623,0.0781765,0.0103633,0.0788604,7.55124,140.902
57,2.5119,0.0789753,0.0120705,0.0798924,8.68978,143.911
58,1.9953,0.0799316,0.0141998,0.0811831,10.0735,146.978
59,1.5849,0.0811741,0.0167545,0.0828851,11.6622,150.135
60,1.2589,0.0827614,0.0198476,0.0851081,13.4858,153.413
61,1,0.0848929,0.0235134,0.0880891,15.4815,157.074
62,0.79433,0.0876114,0.0276691,0.0918768,17.527,160.732
63,0.63096,0.0911104,0.032373,0.0966908,19.561,164.621
64,0.50119,0.0957136,0.0374742,0.102788,21.3816,168.841
65,0.39811,0.102074,0.0432786,0.11087,22.9767,173.53
66,0.31623,0.109299,0.0486747,0.119647,24.0051,178.721
67,0.25119,0.118213,0.0534818,0.129749,24.3428,184.578
68,0.19953,0.128068,0.0576382,0.14044,24.2306,191.24
69,0.15849,0.138878,0.0606593,0.151548,23.5947,198.946
70,0.12589,0.150465,0.0619092,0.162703,22.3649,207.9
71,0.1,0.161628,0.0617985,0.173039,20.9244,218.485