File: tutorials/data/eis/NCA_1_Pristine_35C.txt
Index,Frequency (Hz),Z' (Ω),-Z'' (Ω),Z (Ω),-Phase (°),Time (s)
1,1000000,1.40913,-1.35709,1.95636,-43.9223,19.0061
2,794330,1.06536,-1.27385,1.66063,-50.0933,20.8391
3,630960,0.814676,-1.14137,1.40229,-54.4818,24.2974
4,501190,0.616239,-0.997629,1.17261,-58.2962,27.5995
5,398110,0.469203,-0.853745,0.974183,-61.2076,32.2382
6,316230,0.362153,-0.719789,0.805761,-63.2913,35.3517
7,251190,0.283778,-0.601518,0.665097,-64.7435,38.5175
8,199530,0.229381,-0.500773,0.550808,-65.3897,40.2383
9,158490,0.187656,-0.415597,0.456,-65.6992,42.0467
10,125890,0.156338,-0.343585,0.377482,-65.5336,43.8027
11,100000,0.13265,-0.282904,0.312459,-64.8788,47.0001
12,79433,0.115017,-0.232016,0.258961,-63.6311,48.6202
13,63096,0.101907,-0.189661,0.215305,-61.7505,50.4404
14,50119,0.0922188,-0.154502,0.179931,-59.1679,52.2577
15,39811,0.0851974,-0.125681,0.151837,-55.8673,54.0699
16,31623,0.0799747,-0.101986,0.129604,-51.8974,55.858
17,25119,0.0760923,-0.0826492,0.112343,-47.3653,57.5837
18,19953,0.073217,-0.0669233,0.099194,-42.4286,59.4071
19,15849,0.0706107,-0.0537761,0.0887566,-37.2924,61.2335
20,12589,0.0689116,-0.0432289,0.0813483,-32.1005,62.9926
21,10000,0.0677173,-0.0345922,0.0760411,-27.0594,66.1318
22,7943.3,0.0668916,-0.0275137,0.0723291,-22.3582,67.7575
23,6309.6,0.0664396,-0.0217663,0.0699142,-18.1393,69.4854
24,5011.9,0.0657965,-0.0169805,0.0679523,-14.4709,71.3088
25,3981.1,0.0657266,-0.0131978,0.0670386,-11.3539,73.0212
26,3162.3,0.065711,-0.0101122,0.0664845,-8.74856,74.7609
27,2511.9,0.06582,-0.00759789,0.0662571,-6.58476,76.5729
28,1995.3,0.0659444,-0.00555587,0.066178,-4.81584,78.2826
29,1584.9,0.0661191,-0.00390613,0.0662344,-3.38095,79.9494
30,1258.9,0.0663719,-0.00257521,0.0664218,-2.22195,81.6761
31,1000,0.0668732,-0.00144499,0.0668888,-1.23785,83.3975
32,794.33,0.0672195,-0.000598947,0.0672222,-0.510509,85.2259
33,630.96,0.0676088,8.67922e-05,0.0676089,0.0735529,86.9331
34,501.19,0.0676542,0.000629285,0.0676571,0.532921,88.6842
35,398.11,0.0680377,0.0010812,0.0680463,0.910418,90.3804
36,316.23,0.0684295,0.00145304,0.0684449,1.21644,92.0978
37,251.19,0.0688089,0.00176472,0.0688316,1.46913,93.9128
38,199.53,0.0692366,0.0020313,0.0692664,1.68049,95.6379
39,158.49,0.0696514,0.00226075,0.0696881,1.85905,97.3705
40,125.89,0.0700451,0.00246096,0.0700883,2.0122,99.167
41,100,0.0705094,0.00264192,0.0705589,2.14581,100.975
42,79.433,0.0709698,0.00277823,0.0710242,2.2418,102.781
43,63.096,0.0714171,0.00289067,0.0714756,2.31783,104.649
44,50.119,0.0718939,0.00298713,0.0719559,2.37922,106.782
45,39.811,0.0723161,0.00307482,0.0723814,2.43471,108.719
46,31.623,0.0727021,0.00316644,0.072771,2.49386,110.744
47,25.119,0.0731062,0.00328065,0.0731798,2.56943,112.829
48,19.953,0.0734687,0.00341217,0.0735479,2.65913,115.129
49,15.849,0.0739093,0.0036151,0.0739977,2.80025,117.479
50,12.589,0.0742,0.00388257,0.0743015,2.99531,120.01
51,10,0.0745927,0.00424433,0.0747134,3.25662,122.697
52,7.9433,0.0749369,0.00472141,0.0750855,3.60516,125.407
53,6.3096,0.0753355,0.00534665,0.075525,4.05954,128.227
54,5.0119,0.0757957,0.00614711,0.0760446,4.6366,131.008
55,3.9811,0.0763695,0.00712902,0.0767015,5.33305,133.818
56,3.1623,0.0770319,0.0083205,0.0774799,6.16483,136.775
57,2.5119,0.0779103,0.00975443,0.0785185,7.13635,139.809
58,1.9953,0.0790583,0.011422,0.0798791,8.22098,142.877
59,1.5849,0.0805073,0.0132966,0.0815979,9.37835,146.107
60,1.2589,0.0823446,0.0153641,0.0837657,10.5689,149.418
61,1,0.0847653,0.0175591,0.0865649,11.7033,153.087
62,0.79433,0.0876478,0.0197157,0.0898379,12.6773,156.715
63,0.63096,0.0911894,0.0217426,0.0937456,13.4109,160.59
64,0.50119,0.0952406,0.0234241,0.0980788,13.8175,164.896
65,0.39811,0.0996615,0.0246778,0.102671,13.9076,169.517
66,0.31623,0.104785,0.025422,0.107825,13.6371,174.692
67,0.25119,0.109565,0.0253864,0.112468,13.0453,180.512
68,0.19953,0.113999,0.0250404,0.116716,12.3886,187.121
69,0.15849,0.118127,0.024181,0.120577,11.5688,194.813
70,0.12589,0.121964,0.0231248,0.124136,10.7361,203.755
71,0.1,0.124946,0.021974,0.126864,9.97447,214.332