File: tutorials/data/eis/NCA_1_Pristine_5C.txt
Index,Frequency (Hz),Z' (Ω),-Z'' (Ω),Z (Ω),-Phase (°),Time (s)
1,1000000,1.37827,-1.41398,1.97458,-45.7327,34.0833
2,794330,1.01612,-1.31989,1.66572,-52.4088,35.9075
3,630960,0.755839,-1.16629,1.38979,-57.0539,39.3091
4,501190,0.557195,-1.00412,1.14836,-60.9738,42.6271
5,398110,0.415272,-0.848379,0.944562,-63.9188,47.2328
6,316230,0.31509,-0.706481,0.773561,-65.9631,50.3406
7,251190,0.244068,-0.582711,0.63176,-67.2737,53.4534
8,199530,0.196951,-0.47936,0.518243,-67.664,56.6793
9,158490,0.162199,-0.392885,0.42505,-67.5671,58.3855
10,125890,0.137129,-0.321588,0.349604,-66.906,60.1021
11,100000,0.118611,-0.262794,0.288321,-65.7081,63.3582
12,79433,0.104936,-0.214532,0.238821,-63.9351,64.9921
13,63096,0.0946927,-0.175001,0.198978,-61.5823,66.8072
14,50119,0.0869391,-0.142567,0.166984,-58.6247,68.6853
15,39811,0.0810139,-0.115958,0.141455,-55.06,70.4967
16,31623,0.0764844,-0.0941965,0.121338,-50.9246,72.3186
17,25119,0.073006,-0.0764088,0.10568,-46.3046,74.0671
18,19953,0.069976,-0.0615829,0.0932153,-41.3496,75.7894
19,15849,0.0679429,-0.0496766,0.0841665,-36.1725,77.5258
20,12589,0.0663456,-0.0398251,0.0773807,-30.975,79.2612
21,10000,0.0653268,-0.0317624,0.0726391,-25.9294,82.4068
22,7943.3,0.0645384,-0.0250398,0.0692257,-21.2054,84.041
23,6309.6,0.0641246,-0.0195202,0.0670299,-16.9308,85.7758
24,5011.9,0.063615,-0.014895,0.0653355,-13.178,87.6347
25,3981.1,0.0636115,-0.0111647,0.0645839,-9.95483,89.3425
26,3162.3,0.0637458,-0.00808106,0.064256,-7.22486,91.0485
27,2511.9,0.0639956,-0.0055054,0.0642319,-4.91692,92.7608
28,1995.3,0.0642821,-0.0033488,0.0643693,-2.98215,94.5107
29,1584.9,0.064753,-0.00153758,0.0647712,-1.36025,96.1866
30,1258.9,0.0652261,1.12897e-05,0.0652261,0.00991711,97.8776
31,1000,0.0660265,0.00140825,0.0660415,1.22185,99.6139
32,794.33,0.0666934,0.00257334,0.066743,2.20964,101.439
33,630.96,0.0671653,0.00359316,0.0672614,3.06225,103.14
34,501.19,0.0679537,0.00454427,0.0681055,3.82584,104.865
35,398.11,0.0688824,0.0054324,0.0690962,4.50929,106.638
36,316.23,0.0698864,0.0062695,0.0701671,5.12628,108.353
37,251.19,0.0709803,0.00707578,0.0713321,5.69281,110.103
38,199.53,0.0721853,0.00785546,0.0726115,6.21068,111.812
39,158.49,0.0734659,0.00861086,0.0739688,6.68508,113.583
40,125.89,0.0748301,0.00934515,0.0754114,7.11852,115.371
41,100,0.0763294,0.0100703,0.0769909,7.51572,117.152
42,79.433,0.0779183,0.0107568,0.0786573,7.86013,118.998
43,63.096,0.0795953,0.0114258,0.0804112,8.16892,120.875
44,50.119,0.081352,0.0120775,0.0822437,8.44445,122.939
45,39.811,0.083187,0.0127129,0.0841528,8.6889,124.897
46,31.623,0.0851619,0.0133411,0.0862005,8.90333,126.938
47,25.119,0.0871381,0.013944,0.0882467,9.09151,129.007
48,19.953,0.0891972,0.01452,0.0903712,9.2458,131.281
49,15.849,0.091398,0.0151205,0.0926403,9.39369,133.636
50,12.589,0.0935342,0.015715,0.0948452,9.53738,136.099
51,10,0.0957509,0.0163592,0.0971383,9.69547,138.788
52,7.9433,0.0980247,0.0170756,0.0995009,9.88157,141.507
53,6.3096,0.100268,0.0178679,0.101848,10.1041,144.311
54,5.0119,0.103059,0.0188983,0.104777,10.3911,147.15
55,3.9811,0.105324,0.0199794,0.107202,10.7411,149.969
56,3.1623,0.107659,0.021296,0.109745,11.1892,152.916
57,2.5119,0.109948,0.0229241,0.112313,11.7774,155.908
58,1.9953,0.112191,0.0249873,0.11494,12.556,159.024
59,1.5849,0.114505,0.027621,0.117789,13.5619,162.212
60,1.2589,0.116773,0.0309732,0.120811,14.8553,165.453
61,1,0.119136,0.0352901,0.124253,16.5002,169.144
62,0.79433,0.122185,0.0406164,0.128759,18.3876,172.791
63,0.63096,0.125181,0.0472757,0.133811,20.6895,176.681
64,0.50119,0.128852,0.0559926,0.140492,23.4874,180.968
65,0.39811,0.13341,0.0658884,0.148794,26.2838,185.664
66,0.31623,0.139696,0.0782569,0.160122,29.2574,190.869
67,0.25119,0.14683,0.0931053,0.173861,32.3789,196.741
68,0.19953,0.157676,0.109651,0.192055,34.8156,203.431
69,0.15849,0.170916,0.128961,0.214111,37.0355,211.103
70,0.12589,0.186712,0.150774,0.239988,38.9215,220.039
71,0.1,0.207783,0.176453,0.272598,40.3385,230.65