File: tutorials/data/eis/NCA_3_Pristine_25C.txt
Index,Frequency (Hz),Z' (Ω),-Z'' (Ω),Z (Ω),-Phase (°),Time (s)
1,1000000,1.22674,-1.18251,1.70388,-43.9483,19.2295
2,794330,0.916791,-1.11199,1.44119,-50.4957,21.1225
3,630960,0.694613,-0.990328,1.20964,-54.9543,24.5158
4,501190,0.521824,-0.859513,1.00552,-58.7374,27.8414
5,398110,0.396245,-0.731533,0.831956,-61.5572,32.4593
6,316230,0.306072,-0.613188,0.685331,-63.474,36.9245
7,251190,0.240975,-0.508589,0.562789,-64.6479,40.0363
8,199530,0.197259,-0.420478,0.464449,-64.8674,41.7615
9,158490,0.164433,-0.346262,0.383322,-64.5978,43.6065
10,125890,0.140497,-0.284355,0.31717,-63.7065,45.3085
11,100000,0.12276,-0.233028,0.263386,-62.2196,48.5543
12,79433,0.109725,-0.190581,0.219911,-60.0692,50.1983
13,63096,0.0999842,-0.155444,0.184824,-57.2502,52.0056
14,50119,0.0927956,-0.126675,0.157028,-53.7755,53.824
15,39811,0.0873333,-0.102984,0.135029,-49.7011,55.6723
16,31623,0.0832509,-0.0836831,0.118041,-45.1484,57.4945
17,25119,0.0801151,-0.0678977,0.105017,-40.2813,59.3071
18,19953,0.0773271,-0.0547799,0.0947645,-35.3145,61.0449
19,15849,0.0754454,-0.0442249,0.087452,-30.3782,62.8641
20,12589,0.0740103,-0.0355303,0.0820971,-25.6443,64.596
21,10000,0.0731092,-0.028374,0.0784222,-21.2114,67.8157
22,7943.3,0.072406,-0.0224536,0.0758076,-17.229,69.4556
23,6309.6,0.0720137,-0.0175976,0.0741327,-13.732,71.2188
24,5011.9,0.0714426,-0.013544,0.0727151,-10.7346,72.9511
25,3981.1,0.0714488,-0.010304,0.072188,-8.20634,74.6921
26,3162.3,0.0715219,-0.00763091,0.0719278,-6.09005,76.3987
27,2511.9,0.0716975,-0.00543087,0.0719029,-4.33171,78.1919
28,1995.3,0.0719186,-0.00362347,0.0720098,-2.88429,79.9294
29,1584.9,0.0722562,-0.00214157,0.0722879,-1.69767,81.5681
30,1258.9,0.0726203,-0.000918736,0.0726261,-0.724824,83.2608
31,1000,0.073294,0.000134662,0.0732941,0.105269,84.9817
32,794.33,0.0737657,0.000965859,0.073772,0.750166,86.7982
33,630.96,0.0743152,0.0016614,0.0743338,1.2807,88.5233
34,501.19,0.0745619,0.00222652,0.0745951,1.71043,90.2576
35,398.11,0.0751355,0.00271634,0.0751846,2.07048,91.9536
36,316.23,0.0757228,0.0031277,0.0757873,2.36523,93.7266
37,251.19,0.0764238,0.00347943,0.076503,2.60677,95.4694
38,199.53,0.0770646,0.00377285,0.0771569,2.80279,97.2063
39,158.49,0.0777493,0.00402865,0.0778536,2.96618,98.9485
40,125.89,0.0784519,0.00425382,0.0785672,3.10365,100.771
41,100,0.0791819,0.00446628,0.0793077,3.22837,102.534
42,79.433,0.0798589,0.00464183,0.0799937,3.32659,104.359
43,63.096,0.0805814,0.00481407,0.0807251,3.41888,106.227
44,50.119,0.0813139,0.00497531,0.081466,3.50136,108.296
45,39.811,0.0820393,0.00513226,0.0821997,3.57967,110.243
46,31.623,0.0827822,0.00528201,0.0829505,3.65087,112.304
47,25.119,0.0835435,0.00542894,0.0837197,3.71805,114.288
48,19.953,0.0842645,0.00556821,0.0844483,3.78062,116.563
49,15.849,0.0850369,0.00574122,0.0852305,3.86243,118.906
50,12.589,0.0856776,0.00595656,0.0858844,3.97697,121.376
51,10,0.0863243,0.00626044,0.086551,4.14796,124.065
52,7.9433,0.0869571,0.00669019,0.0872141,4.39948,126.815
53,6.3096,0.0875218,0.00727588,0.0878237,4.7522,129.617
54,5.0119,0.0881364,0.00807246,0.0885053,5.23315,132.423
55,3.9811,0.088741,0.00911838,0.0892083,5.86671,135.235
56,3.1623,0.0894734,0.0104791,0.090085,6.68005,138.178
57,2.5119,0.0902603,0.0121899,0.0910797,7.6914,141.185
58,1.9953,0.091246,0.014297,0.0923593,8.90504,144.254
59,1.5849,0.0926046,0.0168423,0.0941238,10.3079,147.363
60,1.2589,0.094235,0.0199227,0.0963179,11.9374,150.687
61,1,0.0964003,0.023466,0.0992153,13.681,154.399
62,0.79433,0.0992228,0.0275964,0.102989,15.5426,158.082
63,0.63096,0.103349,0.0323483,0.108293,17.3802,161.95
64,0.50119,0.107985,0.0373378,0.114258,19.0737,166.227
65,0.39811,0.114047,0.0425672,0.121732,20.4677,170.947
66,0.31623,0.121365,0.0476102,0.13037,21.4195,176.115
67,0.25119,0.129936,0.051866,0.139905,21.7602,181.901
68,0.19953,0.13976,0.0556918,0.150448,21.7264,188.554
69,0.15849,0.150332,0.0579868,0.161128,21.0929,196.238
70,0.12589,0.161082,0.0589564,0.171533,20.1027,205.164
71,0.1,0.17143,0.0589149,0.181271,18.9662,215.801