File: tutorials/data/eis/NCA_2_Pristine_35C.txt
Index,Frequency (Hz),Z' (Ω),-Z'' (Ω),Z (Ω),-Phase (°),Time (s)
1,1000000,1.40827,-1.37401,1.96752,-44.2946,19.0494
2,794330,1.05449,-1.28327,1.66095,-50.5893,20.925
3,630960,0.803738,-1.14337,1.3976,-54.8944,24.3487
4,501190,0.608242,-0.994568,1.16581,-58.5515,27.6848
5,398110,0.464621,-0.850354,0.969007,-61.3485,32.2856
6,316230,0.35964,-0.717482,0.802571,-63.3775,35.4258
7,251190,0.281895,-0.59961,0.662568,-64.8204,38.5413
8,199530,0.227804,-0.499562,0.549051,-65.4866,40.2896
9,158490,0.186136,-0.414673,0.454533,-65.826,42.1117
10,125890,0.154789,-0.342837,0.376161,-65.7011,43.8192
11,100000,0.131184,-0.282331,0.31132,-65.0783,47.0761
12,79433,0.113581,-0.231519,0.257879,-63.8678,48.7928
13,63096,0.10048,-0.189088,0.214127,-62.0142,50.6185
14,50119,0.0909108,-0.154082,0.178903,-59.4588,52.52
15,39811,0.0839034,-0.125247,0.150754,-56.1818,54.3507
16,31623,0.0787253,-0.101606,0.128536,-52.2311,56.0685
17,25119,0.0748943,-0.0823232,0.111294,-47.7054,57.8959
18,19953,0.072013,-0.0665874,0.0980803,-42.7583,59.6396
19,15849,0.0694751,-0.0534915,0.0876819,-37.594,61.4526
20,12589,0.0678418,-0.0429889,0.0803154,-32.361,63.2599
21,10000,0.0666516,-0.0343604,0.0749871,-27.2721,66.532
22,7943.3,0.0658587,-0.0273097,0.0712965,-22.5224,68.143
23,6309.6,0.0654054,-0.0215743,0.0688717,-18.2554,69.8654
24,5011.9,0.0648221,-0.0168169,0.066968,-14.5437,71.6741
25,3981.1,0.0647725,-0.0130479,0.0660736,-11.3893,73.3813
26,3162.3,0.0647882,-0.00997755,0.065552,-8.75492,75.0923
27,2511.9,0.064878,-0.0074687,0.0653064,-6.56694,76.9135
28,1995.3,0.0650456,-0.00543785,0.0652725,-4.77885,78.6286
29,1584.9,0.065227,-0.00379581,0.0653373,-3.3305,80.3144
30,1258.9,0.0654987,-0.0024726,0.0655454,-2.16191,82.0199
31,1000,0.0660134,-0.00134379,0.066027,-1.16617,83.751
32,794.33,0.0663822,-0.000502719,0.0663841,-0.433898,85.574
33,630.96,0.0664303,0.000165594,0.0664305,0.142823,87.2854
34,501.19,0.0668181,0.000711491,0.0668219,0.610073,89.0082
35,398.11,0.067231,0.00115439,0.0672409,0.983702,90.7663
36,316.23,0.0676347,0.00151447,0.0676517,1.28275,92.5091
37,251.19,0.0680484,0.00181404,0.0680725,1.52703,94.2646
38,199.53,0.0684328,0.00206803,0.0684641,1.73095,95.9963
39,158.49,0.0688715,0.00228341,0.0689093,1.89893,97.7681
40,125.89,0.0693255,0.00246939,0.0693695,2.04003,99.5598
41,100,0.0697661,0.00263574,0.0698159,2.16358,101.334
42,79.433,0.0701865,0.0027602,0.0702408,2.25209,103.173
43,63.096,0.0706298,0.00286259,0.0706878,2.3209,105.036
44,50.119,0.0710967,0.00295414,0.071158,2.37933,107.11
45,39.811,0.0714541,0.00303538,0.0715186,2.43247,109.073
46,31.623,0.0719197,0.00312963,0.0719877,2.49169,111.096
47,25.119,0.0723013,0.00324399,0.072374,2.56901,113.181
48,19.953,0.0726257,0.0033803,0.0727043,2.66486,115.476
49,15.849,0.073013,0.00358547,0.073101,2.81138,117.817
50,12.589,0.0733411,0.00386332,0.0734428,3.01533,120.274
51,10,0.0736957,0.00423709,0.0738174,3.29057,123.005
52,7.9433,0.0740774,0.00473247,0.0742284,3.6554,125.705
53,6.3096,0.0744647,0.00537122,0.0746582,4.12566,128.516
54,5.0119,0.0749158,0.00618131,0.0751703,4.7168,131.286
55,3.9811,0.0754797,0.00717884,0.0758203,5.43304,134.111
56,3.1623,0.0761687,0.00839143,0.0766295,6.28687,136.961
57,2.5119,0.0770431,0.00983697,0.0776685,7.27624,139.902
58,1.9953,0.0781794,0.0115161,0.079023,8.37957,142.974
59,1.5849,0.0796914,0.0134171,0.080813,9.55685,146.1
60,1.2589,0.0815339,0.0155221,0.0829983,10.7787,149.436
61,1,0.0839182,0.0177268,0.0857701,11.9277,153.08
62,0.79433,0.0869013,0.0199169,0.0891545,12.9087,156.731
63,0.63096,0.0904307,0.0219644,0.0930599,13.652,160.634
64,0.50119,0.0945177,0.0237406,0.0974536,14.0997,164.873
65,0.39811,0.0990042,0.0249663,0.102104,14.1534,169.57
66,0.31623,0.104202,0.0257289,0.107331,13.8697,174.773
67,0.25119,0.108919,0.0259429,0.111966,13.3974,180.599
68,0.19953,0.113477,0.0253367,0.116272,12.5863,187.285
69,0.15849,0.117643,0.0245149,0.12017,11.7711,194.982
70,0.12589,0.12139,0.0235848,0.12366,10.995,203.914
71,0.1,0.124999,0.0225708,0.127021,10.2355,214.495