File: tutorials/data/eis/NCA_3_Pristine_5C.txt
Index,Frequency (Hz),Z' (Ω),-Z'' (Ω),Z (Ω),-Phase (°),Time (s)
1,1000000,1.36862,-1.41884,1.97135,-46.0321,23.6231
2,794330,1.00652,-1.31808,1.65844,-52.6336,25.5131
3,630960,0.749111,-1.16176,1.38234,-57.1858,28.9223
4,501190,0.553804,-0.999212,1.14242,-61.003,32.2355
5,398110,0.414012,-0.843893,0.939979,-63.8675,36.8635
6,316230,0.315063,-0.702526,0.76994,-65.8451,39.9794
7,251190,0.244669,-0.579365,0.628909,-67.1054,43.0901
8,199530,0.198062,-0.476846,0.516343,-67.444,46.3171
9,158490,0.163497,-0.390784,0.423607,-67.2965,48.0777
10,125890,0.138547,-0.319816,0.348536,-66.5773,49.8194
11,100000,0.12023,-0.261477,0.287795,-65.3065,53.1285
12,79433,0.106634,-0.213267,0.23844,-63.4347,54.7779
13,63096,0.0964678,-0.173694,0.198684,-60.9526,56.6004
14,50119,0.0888522,-0.141287,0.166904,-57.8352,58.4339
15,39811,0.0831312,-0.11482,0.141755,-54.0949,60.2597
16,31623,0.0787831,-0.0931826,0.122024,-49.7865,61.9989
17,25119,0.0754341,-0.0754756,0.106709,-45.0158,63.8574
18,19953,0.0725227,-0.0607564,0.0946091,-39.9548,65.6782
19,15849,0.0705749,-0.0489233,0.0858738,-34.7301,67.4016
20,12589,0.0690575,-0.0391422,0.0793791,-29.5449,69.2171
21,10000,0.0680665,-0.0310969,0.0748336,-24.5538,72.3623
22,7943.3,0.0673705,-0.0244467,0.0716689,-19.9442,73.9845
23,6309.6,0.0670457,-0.0189918,0.0696836,-15.8156,75.7157
24,5011.9,0.066586,-0.014419,0.0681293,-12.2186,77.4307
25,3981.1,0.0666211,-0.0107237,0.0674787,-9.14422,79.1658
26,3162.3,0.0668028,-0.00766554,0.0672412,-6.54599,80.8673
27,2511.9,0.0670651,-0.00511139,0.0672596,-4.35839,82.5969
28,1995.3,0.0674702,-0.00297869,0.067536,-2.52786,84.3352
29,1584.9,0.0679138,-0.00117945,0.0679241,-0.994948,86.0156
30,1258.9,0.0684169,0.000357339,0.0684178,0.299251,87.706
31,1000,0.0692809,0.00173972,0.0693028,1.43845,89.4065
32,794.33,0.0700365,0.0029106,0.070097,2.37974,91.2493
33,630.96,0.0705069,0.00394011,0.0706169,3.19851,92.9595
34,501.19,0.0713638,0.00490996,0.0715325,3.93586,94.6752
35,398.11,0.0723082,0.00581979,0.0725421,4.60158,96.3918
36,316.23,0.0733743,0.00669367,0.073679,5.21246,98.1572
37,251.19,0.0744885,0.00753718,0.0748688,5.77786,99.9028
38,199.53,0.0757331,0.00836778,0.076194,6.30506,101.624
39,158.49,0.0770463,0.00918251,0.0775916,6.79655,103.372
40,125.89,0.0785246,0.00999529,0.0791581,7.2541,105.177
41,100,0.0800763,0.0108011,0.0808014,7.68201,106.941
42,79.433,0.0817379,0.011583,0.0825545,8.06563,108.747
43,63.096,0.0835565,0.0123653,0.0844665,8.41797,110.645
44,50.119,0.0854066,0.0131369,0.086411,8.74448,112.714
45,39.811,0.0873792,0.0139003,0.0884779,9.03888,114.656
46,31.623,0.0895057,0.0146691,0.0906998,9.30748,116.694
47,25.119,0.0917031,0.0154216,0.0929908,9.54605,118.763
48,19.953,0.0940262,0.0161379,0.0954011,9.73891,121.052
49,15.849,0.0964892,0.0168634,0.0979517,9.91347,123.398
50,12.589,0.0989443,0.0175687,0.100492,10.0686,125.771
51,10,0.101917,0.018373,0.10356,10.2192,128.46
52,7.9433,0.104452,0.0191474,0.106192,10.3878,131.196
53,6.3096,0.107078,0.020021,0.108934,10.5906,133.991
54,5.0119,0.109661,0.0210037,0.111654,10.8428,136.792
55,3.9811,0.112252,0.02213,0.114413,11.1526,139.688
56,3.1623,0.114892,0.0234987,0.11727,11.5592,142.538
57,2.5119,0.117546,0.0251398,0.120204,12.0721,145.542
58,1.9953,0.120095,0.0272354,0.123145,12.7775,148.579
59,1.5849,0.122676,0.0297439,0.12623,13.6289,151.765
60,1.2589,0.125323,0.0330821,0.129616,14.7873,155.125
61,1,0.127962,0.0374164,0.13332,16.299,158.781
62,0.79433,0.131178,0.0425927,0.13792,17.9883,162.47
63,0.63096,0.134382,0.0491894,0.143102,20.1047,166.356
64,0.50119,0.138401,0.0578657,0.150011,22.6899,170.611
65,0.39811,0.14292,0.0679562,0.158253,25.4303,175.304
66,0.31623,0.149167,0.0802126,0.169366,28.2686,180.513
67,0.25119,0.157067,0.0957177,0.183935,31.3584,186.321
68,0.19953,0.167147,0.11188,0.201134,33.7964,192.927
69,0.15849,0.180348,0.131202,0.223023,36.0358,200.633
70,0.12589,0.196668,0.153855,0.249699,38.0363,209.57
71,0.1,0.219912,0.178552,0.28327,39.0741,220.205