File: tutorials/data/eis/NCA_1_Pristine_15C.txt
Index,Frequency (Hz),Z' (Ω),-Z'' (Ω),Z (Ω),-Phase (°),Time (s)
1,1000000,1.23009,-1.19865,1.71752,-44.2584,18.9728
2,794330,0.917842,-1.12897,1.45499,-50.8891,20.8441
3,630960,0.690322,-1.0049,1.21917,-55.5127,24.2542
4,501190,0.514745,-0.871708,1.01234,-59.4381,27.5839
5,398110,0.387227,-0.739989,0.835182,-62.3775,32.1641
6,316230,0.296612,-0.619018,0.686412,-64.3979,36.5801
7,251190,0.231702,-0.512434,0.562383,-65.6695,39.6847
8,199530,0.188356,-0.422652,0.462723,-65.9798,41.4361
9,158490,0.156077,-0.347281,0.380742,-65.7996,43.2567
10,125890,0.132692,-0.28471,0.314113,-65.0117,44.979
11,100000,0.115416,-0.232856,0.25989,-63.6346,48.2638
12,79433,0.102769,-0.190078,0.216081,-61.6013,50.0053
13,63096,0.0934314,-0.154862,0.180864,-58.8966,51.8431
14,50119,0.0864535,-0.125846,0.15268,-55.5117,53.7037
15,39811,0.0813134,-0.102173,0.13058,-51.4858,55.5296
16,31623,0.0774873,-0.0828917,0.113469,-46.93,57.2706
17,25119,0.0745388,-0.0671408,0.100319,-42.0109,59.0415
18,19953,0.0719262,-0.054093,0.0899969,-36.9455,60.7744
19,15849,0.0701531,-0.0436139,0.0826053,-31.869,62.5851
20,12589,0.0688149,-0.035009,0.0772083,-26.9643,64.3166
21,10000,0.0679197,-0.0279022,0.0734276,-22.3334,67.5732
22,7943.3,0.0672246,-0.0220236,0.0707403,-18.1394,69.2275
23,6309.6,0.0668431,-0.0171886,0.0690177,-14.4211,70.96
24,5011.9,0.0663565,-0.0131477,0.0676465,-11.2073,72.8059
25,3981.1,0.066341,-0.0098853,0.0670735,-8.47513,74.5421
26,3162.3,0.066456,-0.00719277,0.0668441,-6.17728,76.2492
27,2511.9,0.0666585,-0.00495341,0.0668423,-4.24985,78.0902
28,1995.3,0.0669494,-0.00309526,0.0670209,-2.64706,79.8079
29,1584.9,0.0673166,-0.00154691,0.0673344,-1.31641,81.4996
30,1258.9,0.0677532,-0.000246473,0.0677537,-0.20843,83.2118
31,1000,0.0684624,0.000900945,0.0684684,0.753952,84.9466
32,794.33,0.0690458,0.00183999,0.0690703,1.5265,86.7535
33,630.96,0.0693461,0.00263591,0.0693962,2.17682,88.4816
34,501.19,0.0700575,0.00335645,0.0701379,2.74294,90.2211
35,398.11,0.0707915,0.00399452,0.0709041,3.22958,91.9674
36,316.23,0.0715778,0.00457116,0.0717236,3.65411,93.71
37,251.19,0.0724272,0.00509203,0.0726059,4.02159,95.4623
38,199.53,0.07335,0.00556622,0.0735609,4.33962,97.2187
39,158.49,0.0743253,0.00599743,0.0745669,4.61329,98.9736
40,125.89,0.0753642,0.00639132,0.0756347,4.84741,100.77
41,100,0.0763661,0.00674918,0.0766638,5.05064,102.544
42,79.433,0.0774271,0.00705978,0.0777483,5.20981,104.395
43,63.096,0.0785697,0.00735351,0.078913,5.34686,106.252
44,50.119,0.0796558,0.00762589,0.08002,5.46857,108.348
45,39.811,0.0807805,0.00789549,0.0811654,5.58236,110.326
46,31.623,0.0819505,0.00817187,0.0823569,5.69454,112.367
47,25.119,0.0831275,0.00845203,0.083556,5.80563,114.453
48,19.953,0.0843493,0.00872779,0.0847996,5.90749,116.799
49,15.849,0.085606,0.0090214,0.08608,6.01579,119.146
50,12.589,0.0868422,0.00933106,0.0873421,6.13281,121.622
51,10,0.0880326,0.00966931,0.088562,6.26812,124.355
52,7.9433,0.0892963,0.0100745,0.0898628,6.43697,127.068
53,6.3096,0.0904125,0.0105769,0.0910291,6.67241,129.92
54,5.0119,0.0915171,0.0112538,0.0922064,7.0104,132.777
55,3.9811,0.0926243,0.0121465,0.0934173,7.47101,135.657
56,3.1623,0.0936337,0.0133503,0.0945807,8.11455,138.599
57,2.5119,0.0946861,0.0149482,0.0958588,8.97131,141.602
58,1.9953,0.0958439,0.0170157,0.0973426,10.0671,144.717
59,1.5849,0.0971779,0.0195734,0.0991296,11.388,147.91
60,1.2589,0.0987134,0.022851,0.101324,13.0337,151.22
61,1,0.101025,0.0270541,0.104585,14.9918,154.869
62,0.79433,0.103417,0.0318169,0.108201,17.1008,158.512
63,0.63096,0.106442,0.0375848,0.112883,19.4481,162.45
64,0.50119,0.110492,0.0445175,0.119123,21.9446,166.683
65,0.39811,0.115323,0.05257,0.12674,24.5059,171.378
66,0.31623,0.121994,0.0614757,0.136608,26.7447,176.546
67,0.25119,0.130943,0.0715173,0.1492,28.6422,182.367
68,0.19953,0.141475,0.0814985,0.16327,29.9446,189.023
69,0.15849,0.154721,0.0918427,0.179927,30.6935,196.706
70,0.12589,0.170827,0.101803,0.198861,30.7925,205.746
71,0.1,0.189821,0.110103,0.219442,30.1152,216.354