File: tutorials/data/eis/NCA_2_Pristine_15C.txt
Index,Frequency (Hz),Z' (Ω),-Z'' (Ω),Z (Ω),-Phase (°),Time (s)
1,1000000,1.23726,-1.22197,1.73898,-44.6439,18.9466
2,794330,0.918697,-1.14428,1.46744,-51.2403,22.2774
3,630960,0.691402,-1.0134,1.22679,-55.696,25.6047
4,501190,0.517098,-0.876205,1.01741,-59.4527,28.9607
5,398110,0.39121,-0.743675,0.840296,-62.2534,33.5984
6,316230,0.300997,-0.6214,0.690462,-64.1552,38.0272
7,251190,0.236354,-0.514417,0.566117,-65.3231,41.1429
8,199530,0.193041,-0.42419,0.466049,-65.5306,42.8753
9,158490,0.160869,-0.34868,0.384001,-65.233,44.6986
10,125890,0.137441,-0.285879,0.317201,-64.3233,46.4462
11,100000,0.120109,-0.233742,0.262796,-62.8035,49.6668
12,79433,0.107467,-0.190798,0.218982,-60.6096,51.2955
13,63096,0.0981352,-0.155427,0.183816,-57.7321,53.1532
14,50119,0.0911568,-0.126286,0.155749,-54.1772,54.9792
15,39811,0.0859995,-0.102469,0.133775,-49.9941,56.7996
16,31623,0.0821695,-0.0830922,0.11686,-45.3199,58.6207
17,25119,0.0792648,-0.0672998,0.103982,-40.3329,60.3713
18,19953,0.0766223,-0.0541856,0.093846,-35.2671,62.2042
19,15849,0.0748649,-0.0436719,0.0866717,-30.2569,63.9363
20,12589,0.0735073,-0.0350302,0.0814275,-25.4803,65.7264
21,10000,0.0727046,-0.027941,0.0778887,-21.0222,68.8719
22,7943.3,0.0720179,-0.0220504,0.075318,-17.0235,70.5182
23,6309.6,0.0716417,-0.0172038,0.0736783,-13.5031,72.2852
24,5011.9,0.071105,-0.0131426,0.0723094,-10.472,74.0102
25,3981.1,0.0711293,-0.00987558,0.0718116,-7.90441,75.7155
26,3162.3,0.0712412,-0.0071636,0.0716005,-5.74203,77.4291
27,2511.9,0.0714232,-0.00491122,0.0715919,-3.9336,79.2006
28,1995.3,0.0717298,-0.00304521,0.0717944,-2.43097,80.913
29,1584.9,0.0720977,-0.0014907,0.0721131,-1.18448,82.5888
30,1258.9,0.0725492,-0.000184831,0.0725495,-0.14597,84.3254
31,1000,0.0733214,0.000959629,0.0733277,0.749843,86.0557
32,794.33,0.073902,0.00190399,0.0739266,1.47582,87.8771
33,630.96,0.0745645,0.00272384,0.0746143,2.09208,89.5933
34,501.19,0.0749006,0.00342241,0.0749787,2.61618,91.3682
35,398.11,0.0756438,0.0040637,0.0757529,3.07506,93.0961
36,316.23,0.0764717,0.00464206,0.0766124,3.47376,94.8415
37,251.19,0.0772914,0.00516458,0.0774638,3.82279,96.6035
38,199.53,0.0782939,0.00564848,0.0784974,4.12643,98.3621
39,158.49,0.0792279,0.00607743,0.0794607,4.38647,100.124
40,125.89,0.0802453,0.00646739,0.0805055,4.60781,101.919
41,100,0.0813472,0.00683214,0.0816336,4.80086,103.721
42,79.433,0.0824075,0.00713665,0.0827159,4.94958,105.549
43,63.096,0.0835374,0.00742258,0.0838665,5.07759,107.413
44,50.119,0.0846819,0.00768613,0.08503,5.18623,109.486
45,39.811,0.0858403,0.00794088,0.0862068,5.28525,111.461
46,31.623,0.0870139,0.00819283,0.0873987,5.37885,113.504
47,25.119,0.088181,0.00844441,0.0885844,5.4701,115.588
48,19.953,0.0893658,0.00868917,0.0897872,5.5535,117.912
49,15.849,0.0906501,0.00895721,0.0910916,5.64312,120.254
50,12.589,0.0918548,0.00924832,0.0923192,5.7494,122.724
51,10,0.0930572,0.00957456,0.0935485,5.87444,125.435
52,7.9433,0.09423,0.00998257,0.0947573,6.04726,128.145
53,6.3096,0.0953432,0.0104943,0.0959191,6.2812,130.993
54,5.0119,0.0963947,0.0111834,0.0970413,6.61766,133.782
55,3.9811,0.0975035,0.0121116,0.0982529,7.08082,136.653
56,3.1623,0.0985519,0.0133575,0.099453,7.71869,139.6
57,2.5119,0.0996106,0.0149726,0.10073,8.5482,142.632
58,1.9953,0.101255,0.017164,0.1027,9.6209,145.718
59,1.5849,0.1026,0.0197892,0.104491,10.917,148.901
60,1.2589,0.104155,0.0231368,0.106694,12.5242,152.202
61,1,0.106047,0.0272214,0.109485,14.3966,155.886
62,0.79433,0.108653,0.0320439,0.113279,16.4318,159.521
63,0.63096,0.111686,0.0378498,0.117925,18.7213,163.407
64,0.50119,0.115687,0.0449099,0.124098,21.2164,167.65
65,0.39811,0.12072,0.0527673,0.131749,23.6103,172.327
66,0.31623,0.127586,0.061644,0.141698,25.7878,177.515
67,0.25119,0.136275,0.0718571,0.154059,27.8025,183.339
68,0.19953,0.147121,0.0814948,0.168185,28.9833,189.96
69,0.15849,0.160596,0.091629,0.184897,29.7072,197.663
70,0.12589,0.176396,0.101621,0.203574,29.9461,206.68
71,0.1,0.195644,0.11055,0.224717,29.4689,217.3