File: tutorials/data/eis/NCA_2_Pristine_25C.txt
Index,Frequency (Hz),Z' (Ω),-Z'' (Ω),Z (Ω),-Phase (°),Time (s)
1,1000000,1.31927,-1.34036,1.8807,-45.4544,18.932
2,794330,0.976076,-1.24774,1.58417,-51.9648,20.7843
3,630960,0.731995,-1.10079,1.32195,-56.3771,22.6437
4,501190,0.546813,-0.950947,1.09695,-60.1003,26.0319
5,398110,0.412476,-0.806437,0.905802,-62.9112,30.622
6,316230,0.316071,-0.67395,0.744385,-64.8742,33.7289
7,251190,0.246868,-0.558092,0.610255,-66.1381,36.8639
8,199530,0.200326,-0.460822,0.502482,-66.5047,40.0796
9,158490,0.165614,-0.379366,0.41394,-66.416,41.8099
10,125890,0.140164,-0.311635,0.341705,-65.7832,43.5109
11,100000,0.121203,-0.2557,0.282971,-64.6389,46.7058
12,79433,0.107057,-0.209599,0.235357,-62.9435,48.3399
13,63096,0.0962672,-0.171547,0.196712,-60.7001,50.1576
14,50119,0.0879611,-0.140155,0.165471,-57.8877,51.9892
15,39811,0.0816105,-0.1144,0.140526,-54.4968,53.8406
16,31623,0.0767372,-0.0932508,0.120766,-50.5486,55.6601
17,25119,0.0729531,-0.0758345,0.105228,-46.1095,57.4078
18,19953,0.069709,-0.0612812,0.0928156,-41.3187,59.1285
19,15849,0.0674878,-0.0495441,0.0837211,-36.2831,60.8679
20,12589,0.0657596,-0.0398315,0.0768822,-31.2039,62.6849
21,10000,0.0645729,-0.0318713,0.07201,-26.2696,65.9249
22,7943.3,0.0637684,-0.0252979,0.0686032,-21.639,67.5653
23,6309.6,0.0632805,-0.0199007,0.066336,-17.4575,69.2755
24,5011.9,0.0627013,-0.015402,0.0645653,-13.801,71.0011
25,3981.1,0.0626171,-0.0118021,0.0637196,-10.6739,72.7272
26,3162.3,0.0626858,-0.00886416,0.0633094,-8.04861,74.4238
27,2511.9,0.0628275,-0.00643561,0.0631563,-5.84858,76.2471
28,1995.3,0.0630257,-0.00444372,0.0631822,-4.03304,77.9735
29,1584.9,0.0633251,-0.00281141,0.0633875,-2.54206,79.6898
30,1258.9,0.0636613,-0.00146782,0.0636782,-1.32082,81.3868
31,1000,0.0642452,-0.000298306,0.0642459,-0.266036,83.1028
32,794.33,0.0647251,0.000603195,0.0647279,0.533944,84.9457
33,630.96,0.0649784,0.0013392,0.0649922,1.18069,86.6474
34,501.19,0.0655069,0.00196119,0.0655363,1.71485,88.3744
35,398.11,0.066059,0.0024814,0.0661056,2.15121,90.0714
36,316.23,0.0666655,0.00291969,0.0667294,2.50773,91.8286
37,251.19,0.0673166,0.00328671,0.0673968,2.79522,93.614
38,199.53,0.0679279,0.00359663,0.068023,3.03085,95.3301
39,158.49,0.0686252,0.00386427,0.0687339,3.22291,97.0725
40,125.89,0.0692853,0.00409847,0.0694065,3.3853,98.8852
41,100,0.0699793,0.00431443,0.0701122,3.52799,100.658
42,79.433,0.0706645,0.00449839,0.0708076,3.64244,102.48
43,63.096,0.0713673,0.00466871,0.0715199,3.74285,104.386
44,50.119,0.072024,0.00482541,0.0721855,3.83293,106.445
45,39.811,0.0727779,0.00497837,0.072948,3.91322,108.383
46,31.623,0.073511,0.00512654,0.0736895,3.98926,110.408
47,25.119,0.0742123,0.00527085,0.0743992,4.06255,112.478
48,19.953,0.0749216,0.00541084,0.0751167,4.13073,114.75
49,15.849,0.0756264,0.00558852,0.0758326,4.22628,117.108
50,12.589,0.0762489,0.0058114,0.0764701,4.35844,119.573
51,10,0.0768637,0.00612815,0.0771076,4.55841,122.256
52,7.9433,0.0774253,0.00656741,0.0777033,4.84837,124.975
53,6.3096,0.0780014,0.00717906,0.078331,5.25855,127.789
54,5.0119,0.0785278,0.0079951,0.0789338,5.81339,130.59
55,3.9811,0.0791336,0.00906929,0.0796517,6.53798,133.406
56,3.1623,0.0798015,0.010456,0.0804836,7.46468,136.364
57,2.5119,0.0806235,0.0121982,0.081541,8.6035,139.361
58,1.9953,0.081607,0.0143527,0.0828596,9.97495,142.435
59,1.5849,0.0828742,0.0169469,0.0845891,11.5571,145.561
60,1.2589,0.0844689,0.0200805,0.0868229,13.3725,148.841
61,1,0.0865928,0.0237117,0.0897807,15.3139,152.492
62,0.79433,0.0893248,0.027947,0.0935947,17.3733,156.232
63,0.63096,0.0928775,0.0327081,0.0984685,19.4004,160.12
64,0.50119,0.0975148,0.0378844,0.104615,21.2311,164.338
65,0.39811,0.103946,0.0436589,0.112743,22.7831,169.045
66,0.31623,0.111197,0.0491372,0.12157,23.8402,174.257
67,0.25119,0.120022,0.0538971,0.131568,24.1829,180.069
68,0.19953,0.1302,0.0581889,0.142612,24.0807,186.671
69,0.15849,0.141082,0.0612986,0.153823,23.4844,194.415
70,0.12589,0.15266,0.0624938,0.164956,22.2625,203.419
71,0.1,0.163754,0.062685,0.175342,20.9468,214.065