File: tutorials/data/eis/NCA_3_Pristine_35C.txt
Index,Frequency (Hz),Z' (Ω),-Z'' (Ω),Z (Ω),-Phase (°),Time (s)
1,1000000,1.38434,-1.39213,1.96327,-45.1607,19.0091
2,794330,1.03022,-1.29908,1.658,-51.5842,20.8477
3,630960,0.775978,-1.15475,1.39126,-56.0995,24.2994
4,501190,0.578346,-1.00072,1.15582,-59.9751,27.6362
5,398110,0.434299,-0.849717,0.954272,-62.928,32.316
6,316230,0.331408,-0.711204,0.784628,-65.0154,35.4555
7,251190,0.257365,-0.589006,0.642779,-66.3972,38.5714
8,199530,0.20771,-0.486118,0.528634,-66.8638,40.2924
9,158490,0.170723,-0.399853,0.434774,-66.8793,42.1723
10,125890,0.143741,-0.327922,0.358042,-66.3303,43.8887
11,100000,0.123929,-0.268659,0.295865,-65.2368,47.1833
12,79433,0.109216,-0.219502,0.245172,-63.5468,48.8438
13,63096,0.0982349,-0.179074,0.204248,-61.252,50.6498
14,50119,0.0900248,-0.145946,0.171478,-58.3323,52.4668
15,39811,0.0837782,-0.118702,0.14529,-54.7862,54.3294
16,31623,0.0791188,-0.0965315,0.124812,-50.6614,56.1438
17,25119,0.0754866,-0.078315,0.108773,-46.0535,57.8658
18,19953,0.0723529,-0.0631698,0.0960488,-41.1235,59.5928
19,15849,0.0702483,-0.0510183,0.0868198,-35.9893,61.3505
20,12589,0.0686182,-0.0410111,0.0799398,-30.8655,63.0817
21,10000,0.0675001,-0.0327987,0.0750467,-25.9154,66.2963
22,7943.3,0.0667369,-0.0260708,0.0716484,-21.3382,67.9415
23,6309.6,0.06629,-0.0205807,0.0694113,-17.2477,69.678
24,5011.9,0.0657129,-0.0160221,0.067638,-13.7025,71.4956
25,3981.1,0.0656439,-0.0124022,0.0668052,-10.6988,73.2581
26,3162.3,0.0656343,-0.00944736,0.0663108,-8.19085,74.9709
27,2511.9,0.0657624,-0.00703988,0.0661381,-6.11025,76.7031
28,1995.3,0.0659212,-0.00508434,0.066117,-4.41035,78.4146
29,1584.9,0.0661551,-0.00350294,0.0662478,-3.031,80.1299
30,1258.9,0.0664084,-0.00222487,0.0664456,-1.91885,81.8253
31,1000,0.0669427,-0.00114251,0.0669525,-0.977769,83.547
32,794.33,0.0673009,-0.000324142,0.0673016,-0.275952,85.3547
33,630.96,0.0676518,0.000333227,0.0676526,0.282215,87.1031
34,501.19,0.0677254,0.000853289,0.0677308,0.721846,88.8393
35,398.11,0.0681673,0.00128302,0.0681794,1.07827,90.4478
36,316.23,0.0685567,0.00163452,0.0685762,1.36578,92.1906
37,251.19,0.0689833,0.00192669,0.0690102,1.59984,93.9771
38,199.53,0.0694278,0.00217315,0.0694618,1.79282,95.709
39,158.49,0.0698517,0.00238719,0.0698925,1.95733,97.4666
40,125.89,0.0703347,0.00257429,0.0703818,2.09613,99.2996
41,100,0.0707529,0.00273644,0.0708058,2.21486,101.073
42,79.433,0.0712024,0.00286135,0.0712599,2.30126,102.879
43,63.096,0.0716907,0.00296316,0.0717519,2.36683,104.762
44,50.119,0.0721099,0.00304875,0.0721743,2.42098,106.842
45,39.811,0.0725838,0.00312798,0.0726512,2.46762,108.796
46,31.623,0.0729709,0.00321008,0.0730415,2.51889,110.841
47,25.119,0.0733654,0.00331233,0.0734401,2.58506,112.923
48,19.953,0.0737437,0.00343921,0.0738238,2.67019,115.229
49,15.849,0.0741482,0.00363192,0.0742371,2.80422,117.569
50,12.589,0.0744971,0.00389709,0.074599,2.99452,120.039
51,10,0.0748258,0.00425844,0.0749469,3.25726,122.734
52,7.9433,0.0752033,0.00474001,0.0753526,3.60654,125.48
53,6.3096,0.0756298,0.00536795,0.07582,4.05986,128.28
54,5.0119,0.0760717,0.00615632,0.0763204,4.62674,131.097
55,3.9811,0.0766419,0.00713596,0.0769734,5.31934,133.937
56,3.1623,0.07734,0.00831577,0.0777858,6.13699,136.886
57,2.5119,0.0782648,0.00973303,0.0788677,7.08892,139.891
58,1.9953,0.0794201,0.0113665,0.0802294,8.1448,142.949
59,1.5849,0.0809238,0.0132011,0.0819934,9.26508,146.137
60,1.2589,0.0827945,0.0152035,0.0841788,10.4053,149.446
61,1,0.0851781,0.0172556,0.0869083,11.4521,153.147
62,0.79433,0.0881008,0.0192964,0.0901892,12.3542,156.799
63,0.63096,0.0916002,0.0211615,0.0940128,13.0083,160.678
64,0.50119,0.0955107,0.0226395,0.0981572,13.335,164.936
65,0.39811,0.0998056,0.0236885,0.102578,13.3519,169.689
66,0.31623,0.104789,0.0242969,0.107569,13.0542,174.869
67,0.25119,0.109197,0.0240854,0.111822,12.4385,180.66
68,0.19953,0.113417,0.0235728,0.115841,11.7413,187.273
69,0.15849,0.11728,0.0227775,0.119472,10.9908,194.944
70,0.12589,0.12062,0.021654,0.122548,10.1775,203.89
71,0.1,0.123547,0.0207539,0.125278,9.53569,214.552