File: tutorials/data/eis/NCA_2_Pristine_5C.txt
Index,Frequency (Hz),Z' (Ω),-Z'' (Ω),Z (Ω),-Phase (°),Time (s)
1,1000000,1.37887,-1.4731,2.01775,-46.8924,18.9894
2,794330,1.00647,-1.35812,1.69041,-53.4589,20.966
3,630960,0.746604,-1.1901,1.4049,-57.898,24.3813
4,501190,0.551154,-1.02016,1.15952,-61.6193,27.7113
5,398110,0.411637,-0.859792,0.953251,-64.4166,32.3329
6,316230,0.312875,-0.715232,0.780672,-66.3733,35.4413
7,251190,0.242441,-0.589336,0.637256,-67.6387,38.5406
8,199530,0.195711,-0.484756,0.522772,-68.0145,41.7589
9,158490,0.161137,-0.397398,0.428824,-67.9284,43.473
10,125890,0.136102,-0.325145,0.352481,-67.2864,45.1953
11,100000,0.117621,-0.265619,0.290496,-66.1154,48.4124
12,79433,0.103991,-0.216767,0.24042,-64.3713,50.0411
13,63096,0.0937443,-0.176656,0.199988,-62.0469,51.8936
14,50119,0.0859955,-0.143747,0.167506,-59.1103,53.7049
15,39811,0.0801395,-0.116859,0.141698,-55.5584,55.5058
16,31623,0.0756361,-0.0948451,0.121311,-51.4287,57.2429
17,25119,0.0722182,-0.0768837,0.105483,-46.7922,58.9749
18,19953,0.0692214,-0.0618914,0.0928555,-41.8002,60.7917
19,15849,0.0672052,-0.049848,0.0836741,-36.5654,62.5179
20,12589,0.0656694,-0.0399185,0.0768502,-31.2942,64.26
21,10000,0.0646818,-0.0317595,0.0720583,-26.1515,67.3799
22,7943.3,0.0639462,-0.0249953,0.0686577,-21.3495,68.9948
23,6309.6,0.0635635,-0.0194351,0.0664684,-17.0015,70.7259
24,5011.9,0.0630664,-0.0147731,0.0647736,-13.1837,72.5427
25,3981.1,0.0631151,-0.0110207,0.0640701,-9.9047,74.2685
26,3162.3,0.0632839,-0.00791717,0.0637772,-7.13098,75.9737
27,2511.9,0.06354,-0.00532482,0.0637627,-4.79035,77.71
28,1995.3,0.0638992,-0.0031586,0.0639772,-2.82988,79.4205
29,1584.9,0.0643532,-0.00133562,0.064367,-1.18898,81.0906
30,1258.9,0.0648608,0.000219257,0.0648612,0.193683,82.7915
31,1000,0.0657194,0.00160945,0.0657391,1.40288,84.5131
32,794.33,0.066438,0.00278809,0.0664964,2.40303,86.3293
33,630.96,0.0669037,0.00382147,0.0670128,3.26912,88.0287
34,501.19,0.0677486,0.00478913,0.0679177,4.04349,89.7907
35,398.11,0.068687,0.00569245,0.0689225,4.73758,91.4914
36,316.23,0.0697064,0.00655107,0.0700135,5.36894,93.2179
37,251.19,0.0708758,0.00738623,0.0712597,5.94953,94.9741
38,199.53,0.0720611,0.00818817,0.0725248,6.48261,96.7368
39,158.49,0.07339,0.00898115,0.0739375,6.97693,98.4972
40,125.89,0.0748213,0.0097567,0.0754547,7.42945,100.276
41,100,0.0763447,0.0105223,0.0770664,7.84744,102.052
42,79.433,0.0779944,0.0112563,0.0788025,8.21232,103.87
43,63.096,0.0797315,0.0119768,0.080626,8.54279,105.742
44,50.119,0.0815316,0.0126784,0.0825115,8.83885,107.821
45,39.811,0.0835028,0.0133813,0.0845682,9.10425,109.8
46,31.623,0.0855544,0.0140629,0.0867024,9.33443,111.838
47,25.119,0.0876909,0.0147261,0.0889188,9.53287,113.829
48,19.953,0.0898551,0.0153458,0.0911561,9.69168,116.141
49,15.849,0.0921641,0.0159745,0.0935382,9.8332,118.485
50,12.589,0.0944959,0.0165867,0.0959406,9.95563,120.954
51,10,0.0968616,0.017236,0.0983832,10.0899,123.656
52,7.9433,0.0991843,0.0179247,0.100791,10.244,126.356
53,6.3096,0.102054,0.0188011,0.103772,10.4384,129.191
54,5.0119,0.104463,0.0197318,0.106311,10.6964,131.982
55,3.9811,0.106859,0.0208215,0.108869,11.026,134.805
56,3.1623,0.109236,0.0221457,0.111458,11.4604,137.736
57,2.5119,0.111695,0.0238415,0.114211,12.0491,140.728
58,1.9953,0.113944,0.0259214,0.116855,12.8162,143.789
59,1.5849,0.116409,0.0286115,0.119874,13.8086,146.972
60,1.2589,0.118675,0.0320903,0.122937,15.1313,150.301
61,1,0.121234,0.0364057,0.126582,16.7146,153.975
62,0.79433,0.12432,0.0419523,0.131208,18.6472,157.607
63,0.63096,0.127406,0.0487986,0.136431,20.9577,161.518
64,0.50119,0.131061,0.0575524,0.143141,23.7075,165.743
65,0.39811,0.135974,0.0676653,0.15188,26.4566,170.424
66,0.31623,0.142209,0.0802643,0.163297,29.4408,175.569
67,0.25119,0.149403,0.0953376,0.17723,32.543,181.391
68,0.19953,0.160139,0.112212,0.19554,35.0195,188.013
69,0.15849,0.173539,0.132064,0.218075,37.2712,195.708
70,0.12589,0.189405,0.154529,0.244445,39.2097,204.643
71,0.1,0.210794,0.181096,0.277902,40.6663,215.249