File: tutorials/data/eis/NMC_1_Pristine_5C.txt
Index,Frequency (Hz),Z' (Ω),-Z'' (Ω),Z (Ω),-Phase (°),Time (s)
1,1000000,1.2603,-1.47843,1.9427,-49.5538,14.4018
2,794330,0.896437,-1.34496,1.61633,-56.3159,16.2488
3,630960,0.647046,-1.1636,1.33141,-60.9228,19.6383
4,501190,0.464187,-0.986575,1.09032,-64.8029,22.967
5,398110,0.336339,-0.821982,0.888132,-67.7466,27.6267
6,316230,0.248582,-0.676999,0.721194,-69.8377,30.7303
7,251190,0.187654,-0.552324,0.583331,-71.2346,33.8768
8,199530,0.148629,-0.450293,0.474188,-71.7334,35.6028
9,158490,0.120601,-0.366394,0.385732,-71.7806,37.4225
10,125890,0.10076,-0.297673,0.314264,-71.2994,39.1418
11,100000,0.0863852,-0.242124,0.257073,-70.3646,42.4797
12,79433,0.0757264,-0.197119,0.211164,-68.9849,44.2005
13,63096,0.0674698,-0.160304,0.173924,-67.1745,46.0284
14,50119,0.0611029,-0.130392,0.143998,-64.8917,47.8564
15,39811,0.0561241,-0.105787,0.119753,-62.0523,49.6833
16,31623,0.0522816,-0.0855053,0.100222,-58.5566,51.4043
17,25119,0.0492363,-0.0686935,0.0845163,-54.3688,53.247
18,19953,0.0471602,-0.0551244,0.072545,-49.4522,54.9862
19,15849,0.0457216,-0.0440597,0.0634959,-43.9396,56.7207
20,12589,0.0447179,-0.0350115,0.0567934,-38.0589,58.4408
21,10000,0.0439602,-0.0276433,0.0519293,-32.1627,61.5793
22,7943.3,0.043605,-0.021625,0.0486728,-26.3782,63.1989
23,6309.6,0.04345,-0.0167246,0.0465576,-21.0526,64.9251
24,5011.9,0.0432604,-0.0126767,0.0450795,-16.3323,66.6697
25,3981.1,0.0434197,-0.00943939,0.0444339,-12.2652,68.3709
26,3162.3,0.0436408,-0.00677917,0.0441642,-8.82976,70.0794
27,2511.9,0.043943,-0.00458761,0.0441818,-5.96004,71.8004
28,1995.3,0.0442933,-0.00275614,0.044379,-3.56062,73.5459
29,1584.9,0.0446954,-0.00121534,0.0447119,-1.55758,75.2285
30,1258.9,0.0452045,8.57922e-05,0.0452046,0.10874,76.9285
31,1000,0.0458477,0.00127851,0.0458656,1.59734,78.7125
32,794.33,0.0464753,0.00222256,0.0465284,2.73793,80.5396
33,630.96,0.0469741,0.00302816,0.0470716,3.68844,82.2552
34,501.19,0.0477292,0.00375303,0.0478765,4.49601,83.9809
35,398.11,0.0485186,0.00439486,0.0487172,5.17578,85.7073
36,316.23,0.0494083,0.00497139,0.0496578,5.74568,87.4266
37,251.19,0.0503418,0.00548505,0.0506398,6.2182,89.1683
38,199.53,0.0513402,0.00594367,0.0516831,6.60375,90.8919
39,158.49,0.0523847,0.00634378,0.0527674,6.90489,92.6516
40,125.89,0.0535027,0.00669485,0.05392,7.13241,94.438
41,100,0.0546367,0.00699524,0.0550827,7.296,96.2145
42,79.433,0.0558011,0.0072223,0.0562665,7.37476,98.0598
43,63.096,0.0569865,0.00738907,0.0574635,7.38796,99.9261
44,50.119,0.0581899,0.00750264,0.0586716,7.34683,102.004
45,39.811,0.0593413,0.00755863,0.0598207,7.25899,103.946
46,31.623,0.0604882,0.00758358,0.0609617,7.14606,105.997
47,25.119,0.0615505,0.00759644,0.0620174,7.03575,108.068
48,19.953,0.0625483,0.00761958,0.0630107,6.9455,110.358
49,15.849,0.0635367,0.00772305,0.0640044,6.93045,112.742
50,12.589,0.064378,0.0079251,0.064864,7.01795,115.204
51,10,0.0651963,0.0082841,0.0657205,7.24142,117.919
52,7.9433,0.0660323,0.00883293,0.0666205,7.61904,120.625
53,6.3096,0.0668969,0.00961024,0.0675837,8.17503,123.439
54,5.0119,0.067827,0.0106516,0.0686583,8.92487,126.28
55,3.9811,0.0688979,0.0119836,0.0699323,9.86689,129.095
56,3.1623,0.0701622,0.0136192,0.0714718,10.9851,132.059
57,2.5119,0.0717247,0.0155925,0.0734,12.2649,134.995
58,1.9953,0.0736999,0.0178857,0.0758392,13.641,138.141
59,1.5849,0.0761663,0.020441,0.0788615,15.0227,141.311
60,1.2589,0.0792119,0.0232192,0.0825449,16.3373,144.678
61,1,0.0829707,0.0260309,0.0869583,17.4185,148.333
62,0.79433,0.0874341,0.0287904,0.0920522,18.2257,152.002
63,0.63096,0.0925703,0.031216,0.0976919,18.6348,155.867
64,0.50119,0.0982285,0.0332416,0.103701,18.6964,160.107
65,0.39811,0.104944,0.0347402,0.110545,18.3164,164.788
66,0.31623,0.111282,0.0355026,0.116808,17.6945,169.967
67,0.25119,0.11747,0.0357496,0.122789,16.9266,175.825
68,0.19953,0.123812,0.0354429,0.128785,15.9745,182.476
69,0.15849,0.129452,0.0347932,0.134046,15.0441,190.106
70,0.12589,0.134844,0.0341597,0.139103,14.2156,199.087
71,0.1,0.139953,0.034001,0.144024,13.6552,209.672