File: tutorials/data/eis/NMC_2_Pristine_25C.txt
Index,Frequency (Hz),Z' (Ω),-Z'' (Ω),Z (Ω),-Phase (°),Time (s)
1,1000000,1.23705,-1.42028,1.88348,-48.9446,19.005
2,794330,0.882065,-1.29499,1.56686,-55.7399,20.8387
3,630960,0.639923,-1.12416,1.29353,-60.3494,22.67
4,501190,0.461234,-0.954981,1.06053,-64.2205,26.0841
5,398110,0.336059,-0.797826,0.865714,-67.1583,30.72
6,316230,0.249476,-0.657765,0.703487,-69.2294,33.8239
7,251190,0.189398,-0.53783,0.570205,-70.6002,36.9589
8,199530,0.150559,-0.439373,0.464453,-71.0851,38.6837
9,158490,0.122453,-0.35817,0.378524,-71.1251,40.5003
10,125890,0.102497,-0.291919,0.30939,-70.653,42.2456
11,100000,0.0877055,-0.237779,0.253439,-69.7534,45.5235
12,79433,0.0766929,-0.19396,0.208572,-68.4259,47.1526
13,63096,0.068146,-0.158071,0.172135,-66.6787,48.9952
14,50119,0.0615102,-0.128711,0.142654,-64.4572,50.8368
15,39811,0.0563734,-0.104588,0.118813,-61.675,52.6595
16,31623,0.052438,-0.0847055,0.0996232,-58.2399,54.411
17,25119,0.0492707,-0.068136,0.084084,-54.1285,56.1324
18,19953,0.0471204,-0.054823,0.0722903,-49.3209,57.9385
19,15849,0.0456218,-0.0439984,0.0633814,-43.9622,59.7624
20,12589,0.0445671,-0.0351688,0.0567721,-38.2777,61.513
21,10000,0.0436983,-0.0279328,0.0518631,-32.5875,64.6477
22,7943.3,0.043225,-0.0220653,0.0485312,-27.0432,66.2733
23,6309.6,0.0430112,-0.0173372,0.0463739,-21.9537,68.0241
24,5011.9,0.0426859,-0.0134273,0.0447479,-17.4615,69.8536
25,3981.1,0.0426944,-0.0103337,0.0439272,-13.6061,71.5759
26,3162.3,0.0428129,-0.00783292,0.0435235,-10.368,73.2839
27,2511.9,0.042968,-0.00580115,0.0433579,-7.68906,75.0196
28,1995.3,0.0431761,-0.00414313,0.0433744,-5.48125,76.7518
29,1584.9,0.0433682,-0.00278085,0.0434573,-3.66889,78.4324
30,1258.9,0.0436626,-0.00167853,0.0436948,-2.20155,80.1958
31,1000,0.0440854,-0.000712558,0.0440912,-0.925998,81.9128
32,794.33,0.0444197,-6.17712e-06,0.0444197,-0.00796771,83.7453
33,630.96,0.0446253,0.000551093,0.0446287,0.707529,85.4497
34,501.19,0.0450031,0.00100001,0.0450142,1.27296,87.2187
35,398.11,0.045418,0.0013521,0.0454382,1.7052,88.9192
36,316.23,0.0458303,0.00162732,0.0458592,2.03357,90.6408
37,251.19,0.0462306,0.00183472,0.046267,2.27266,92.418
38,199.53,0.0466382,0.00199466,0.0466808,2.44898,94.14
39,158.49,0.0470447,0.00212222,0.0470926,2.5829,95.8967
40,125.89,0.0474071,0.00221754,0.0474589,2.67815,97.6779
41,100,0.0477956,0.00229736,0.0478507,2.75189,99.4921
42,79.433,0.0481425,0.0023596,0.0482003,2.80598,101.304
43,63.096,0.0485028,0.00242015,0.0485631,2.85653,103.162
44,50.119,0.0488156,0.00248798,0.0488789,2.91766,105.265
45,39.811,0.0491223,0.00257225,0.0491896,2.99752,107.212
46,31.623,0.0494268,0.00269296,0.0495002,3.11861,109.246
47,25.119,0.0497317,0.00285754,0.0498137,3.28855,111.317
48,19.953,0.0500491,0.00306757,0.050143,3.50734,113.628
49,15.849,0.0504015,0.00335218,0.0505128,3.80511,115.975
50,12.589,0.0508129,0.00370877,0.0509481,4.17454,118.454
51,10,0.0512868,0.00413554,0.0514533,4.6101,121.139
52,7.9433,0.0518736,0.00461859,0.0520788,5.08793,123.849
53,6.3096,0.0525392,0.00513604,0.0527897,5.58328,126.686
54,5.0119,0.0533699,0.0056653,0.0536698,6.05934,129.53
55,3.9811,0.0543347,0.00616104,0.0546829,6.46917,132.405
56,3.1623,0.0554475,0.0065816,0.0558367,6.76932,135.346
57,2.5119,0.0566364,0.00688683,0.0570536,6.93297,138.391
58,1.9953,0.0578629,0.00705305,0.0582912,6.94963,141.462
59,1.5849,0.0591404,0.00707728,0.0595624,6.82409,144.696
60,1.2589,0.0603016,0.00698145,0.0607044,6.60404,147.996
61,1,0.0614383,0.00682326,0.061816,6.33723,151.669
62,0.79433,0.0624504,0.00662662,0.062801,6.057,155.337
63,0.63096,0.0633197,0.00644427,0.0636468,5.81119,159.213
64,0.50119,0.0641176,0.00629783,0.0644262,5.60977,163.464
65,0.39811,0.0648815,0.0062804,0.0651847,5.52889,168.139
66,0.31623,0.0655817,0.00633528,0.065887,5.51773,173.341
67,0.25119,0.0662903,0.00643269,0.0666017,5.54252,179.186
68,0.19953,0.0669525,0.00672528,0.0672895,5.73603,185.789
69,0.15849,0.0676669,0.0071238,0.0680408,6.00982,193.484
70,0.12589,0.068415,0.00757534,0.0688331,6.31841,202.44
71,0.1,0.0691113,0.0081368,0.0695886,6.7148,213.057