File: tutorials/data/eis/NMC_3_Pristine_25C.txt
Index,Frequency (Hz),Z' (Ω),-Z'' (Ω),Z (Ω),-Phase (°),Time (s)
1,1000000,1.44837,-1.66317,2.20543,-48.9489,18.9842
2,794330,1.03736,-1.51673,1.83755,-55.6299,22.2865
3,630960,0.75348,-1.31549,1.516,-60.1971,25.6366
4,501190,0.54474,-1.11619,1.24202,-63.9859,28.9617
5,398110,0.39876,-0.930544,1.01238,-66.8037,32.1416
6,316230,0.298348,-0.766779,0.822777,-68.7393,36.5885
7,251190,0.228508,-0.625005,0.665468,-69.9171,38.2143
8,199530,0.184068,-0.509205,0.541453,-70.126,40.0208
9,158490,0.152027,-0.413142,0.440225,-69.7975,41.8328
10,125890,0.129811,-0.334661,0.358955,-68.7993,43.5694
11,100000,0.114119,-0.270997,0.294045,-67.1637,46.7951
12,79433,0.1029,-0.219279,0.242222,-64.861,48.5161
13,63096,0.0946608,-0.177262,0.200954,-61.8971,50.3202
14,50119,0.0885402,-0.143141,0.168311,-58.261,52.1767
15,39811,0.0840436,-0.115491,0.142834,-53.9565,53.9069
16,31623,0.0806878,-0.0930261,0.123144,-49.0627,55.6654
17,25119,0.0782437,-0.0748451,0.108277,-43.7282,57.4834
18,19953,0.076013,-0.0597997,0.096716,-38.1923,59.3049
19,15849,0.0747093,-0.0478898,0.0887407,-32.6605,61.1104
20,12589,0.0737525,-0.0382254,0.0830699,-27.3974,62.844
21,10000,0.0730818,-0.0303859,0.0791471,-22.5765,66.0579
22,7943.3,0.0726974,-0.0240444,0.0765706,-18.3015,67.7026
23,6309.6,0.0725087,-0.0189235,0.0749374,-14.6269,69.4215
24,5011.9,0.0720703,-0.014704,0.0735549,-11.5314,71.1676
25,3981.1,0.072078,-0.0113576,0.0729674,-8.95471,72.8743
26,3162.3,0.0721752,-0.00863441,0.0726899,-6.82194,74.6325
27,2511.9,0.0722616,-0.00641172,0.0725455,-5.07053,76.4346
28,1995.3,0.0724341,-0.00461193,0.0725808,-3.64315,78.1372
29,1584.9,0.0726578,-0.0031506,0.0727261,-2.48292,79.8181
30,1258.9,0.0728915,-0.0019673,0.072918,-1.546,81.5454
31,1000,0.0734121,-0.000966157,0.0734185,-0.754011,83.2573
32,794.33,0.0737408,-0.000208241,0.0737411,-0.1618,85.0925
33,630.96,0.0741177,0.000404952,0.0741188,0.31304,86.8179
34,501.19,0.0741875,0.000880488,0.0741927,0.679978,88.5546
35,398.11,0.0745476,0.00126447,0.0745583,0.971755,90.2563
36,316.23,0.0749557,0.00156517,0.0749721,1.19623,91.9869
37,251.19,0.0754004,0.0017995,0.0754219,1.36716,93.7722
38,199.53,0.0757858,0.00197742,0.0758116,1.49464,95.4897
39,158.49,0.0762191,0.00211831,0.0762485,1.59198,97.239
40,125.89,0.0765947,0.00222963,0.0766272,1.66738,99.0191
41,100,0.0769662,0.00232606,0.0770013,1.73106,100.803
42,79.433,0.0772957,0.00239398,0.0773328,1.77398,102.616
43,63.096,0.0776486,0.00245685,0.0776874,1.81227,104.475
44,50.119,0.0780148,0.00252694,0.0780557,1.85519,106.581
45,39.811,0.0782858,0.00261164,0.0783294,1.91069,108.519
46,31.623,0.0785747,0.00272628,0.078622,1.98718,110.552
47,25.119,0.0789143,0.0028885,0.0789672,2.09626,112.653
48,19.953,0.0792051,0.00309444,0.0792656,2.23733,114.947
49,15.849,0.0795646,0.00337409,0.0796361,2.42828,117.289
50,12.589,0.0799653,0.00372643,0.080052,2.66809,119.707
51,10,0.0804204,0.00415328,0.0805275,2.95639,122.403
52,7.9433,0.0809706,0.00464345,0.0811036,3.28217,125.113
53,6.3096,0.081639,0.00517909,0.0818031,3.62992,127.918
54,5.0119,0.0824472,0.00572481,0.0826457,3.97202,130.698
55,3.9811,0.0834164,0.00624158,0.0836496,4.27915,133.53
56,3.1623,0.0845447,0.00669507,0.0848094,4.52779,136.446
57,2.5119,0.0857615,0.00702845,0.086049,4.68511,139.471
58,1.9953,0.0870285,0.00722061,0.0873275,4.74287,142.562
59,1.5849,0.0883512,0.00726709,0.0886496,4.70213,145.723
60,1.2589,0.0895723,0.00718505,0.08986,4.58616,149.002
61,1,0.0906817,0.00699854,0.0909514,4.41317,152.653
62,0.79433,0.0916972,0.00678351,0.0919477,4.23088,156.285
63,0.63096,0.0926004,0.00657381,0.0928335,4.06068,160.169
64,0.50119,0.0934336,0.00645791,0.0936565,3.95386,164.44
65,0.39811,0.0942115,0.00634718,0.094425,3.85429,169.057
66,0.31623,0.0948909,0.00635709,0.0951037,3.83273,174.237
67,0.25119,0.0956094,0.00654954,0.0958334,3.91882,180.052
68,0.19953,0.0963008,0.00670486,0.096534,3.98274,186.691
69,0.15849,0.0969008,0.00708511,0.0971595,4.18187,194.368
70,0.12589,0.0976772,0.00762138,0.097974,4.46153,203.379
71,0.1,0.0985761,0.0082015,0.0989167,4.75604,213.945