File: tutorials/data/eis/NMC_2_Pristine_35C.txt
Index,Frequency (Hz),Z' (Ω),-Z'' (Ω),Z (Ω),-Phase (°),Time (s)
1,1000000,1.28162,-1.4729,1.95243,-48.9724,14.3707
2,794330,0.912784,-1.34221,1.62318,-55.782,17.7341
3,630960,0.661414,-1.16692,1.34133,-60.4554,21.0454
4,501190,0.474752,-0.991213,1.09904,-64.4074,24.3701
5,398110,0.344445,-0.827891,0.896686,-67.4102,28.9749
6,316230,0.254263,-0.682023,0.727877,-69.5542,32.0913
7,251190,0.192038,-0.557502,0.58965,-70.9931,35.2321
8,199530,0.151808,-0.454367,0.479056,-71.5251,36.952
9,158490,0.122961,-0.369316,0.389247,-71.5852,38.7671
10,125890,0.102837,-0.300186,0.317312,-71.0897,40.4884
11,100000,0.0882696,-0.243945,0.259423,-70.1077,43.8425
12,79433,0.0775633,-0.198341,0.212968,-68.6415,45.5895
13,63096,0.0694032,-0.161236,0.175539,-66.7108,47.4708
14,50119,0.0631223,-0.131063,0.145472,-64.2838,49.2938
15,39811,0.0582265,-0.106321,0.121221,-61.2928,51.1111
16,31623,0.054473,-0.0860557,0.101847,-57.6663,52.8433
17,25119,0.0514268,-0.0692242,0.0862364,-53.3913,54.59
18,19953,0.0493701,-0.055726,0.0744499,-48.4609,56.4019
19,15849,0.0478892,-0.044723,0.065525,-43.0419,58.2193
20,12589,0.0468411,-0.035778,0.058942,-37.3732,59.9819
21,10000,0.0459928,-0.0284855,0.0540995,-31.7719,63.1034
22,7943.3,0.0455502,-0.0225986,0.0508479,-26.3872,64.7235
23,6309.6,0.0453066,-0.0178517,0.0486968,-21.5054,66.5059
24,5011.9,0.0449331,-0.0139416,0.0470462,-17.2378,68.232
25,3981.1,0.0449341,-0.0108755,0.0462315,-13.6058,69.9474
26,3162.3,0.0449904,-0.00840514,0.0457688,-10.5821,71.6685
27,2511.9,0.0450674,-0.00641302,0.0455214,-8.09873,73.4058
28,1995.3,0.0451742,-0.00480048,0.0454285,-6.06583,75.1165
29,1584.9,0.0453179,-0.00350008,0.0454529,-4.4164,76.7935
30,1258.9,0.0454872,-0.00245947,0.0455536,-3.09494,78.5292
31,1000,0.0457945,-0.00156096,0.0458211,-1.95224,80.2388
32,794.33,0.0460086,-0.000915484,0.0460177,-1.13993,82.0524
33,630.96,0.0460334,-0.000409828,0.0460352,-0.510083,83.7652
34,501.19,0.0462654,-6.66552e-06,0.0462654,-0.00825469,85.5497
35,398.11,0.0464956,0.000310728,0.0464966,0.3829,87.3529
36,316.23,0.0467237,0.000563318,0.0467271,0.690747,89.0698
37,251.19,0.0469564,0.000764289,0.0469626,0.932495,90.834
38,199.53,0.0471836,0.00093113,0.0471928,1.13054,92.5673
39,158.49,0.0473903,0.00107335,0.0474025,1.29748,94.3184
40,125.89,0.0476416,0.00119729,0.0476566,1.4396,96.1146
41,100,0.047842,0.00130854,0.0478599,1.56673,97.9314
42,79.433,0.0480536,0.00140963,0.0480742,1.68027,99.7387
43,63.096,0.0482601,0.00150823,0.0482836,1.79003,101.65
44,50.119,0.0484757,0.001613,0.0485025,1.90578,103.719
45,39.811,0.0487009,0.00172862,0.0487316,2.03283,105.667
46,31.623,0.0489243,0.00186425,0.0489598,2.18219,107.685
47,25.119,0.049166,0.00201685,0.0492074,2.34903,109.749
48,19.953,0.0494607,0.00218253,0.0495089,2.52663,112.044
49,15.849,0.0498011,0.00237263,0.0498576,2.72763,114.385
50,12.589,0.0501797,0.00256602,0.0502453,2.92736,116.856
51,10,0.0505946,0.00274943,0.0506692,3.11053,119.583
52,7.9433,0.0510587,0.00290794,0.0511415,3.25963,122.308
53,6.3096,0.0515982,0.00302952,0.0516871,3.36019,125.131
54,5.0119,0.0521484,0.00309543,0.0522402,3.39698,127.916
55,3.9811,0.0526603,0.00310674,0.0527518,3.3763,130.778
56,3.1623,0.0531665,0.00307449,0.0532553,3.30959,133.717
57,2.5119,0.0536623,0.0030147,0.0537469,3.21544,136.743
58,1.9953,0.0540771,0.00294468,0.0541572,3.11687,139.781
59,1.5849,0.0544789,0.00287706,0.0545548,3.02302,142.894
60,1.2589,0.0548356,0.00283834,0.054909,2.96304,146.214
61,1,0.0551618,0.00282997,0.0552344,2.93688,149.923
62,0.79433,0.055492,0.00287712,0.0555666,2.96798,153.621
63,0.63096,0.0557938,0.00296982,0.0558728,3.04689,157.499
64,0.50119,0.0560705,0.00313421,0.0561581,3.19936,161.737
65,0.39811,0.056437,0.0033261,0.056535,3.37281,166.408
66,0.31623,0.0567761,0.00360187,0.0568902,3.62998,171.574
67,0.25119,0.0571459,0.00396419,0.0572832,3.96823,177.411
68,0.19953,0.0576126,0.00433314,0.0577753,4.30121,184.014
69,0.15849,0.0580859,0.00480265,0.0582841,4.72658,191.676
70,0.12589,0.0585564,0.00536732,0.0588018,5.23714,200.703
71,0.1,0.0591875,0.00607319,0.0594983,5.85857,211.273