File: tutorials/data/eis/NMC_2_Pristine_45C.txt
Index,Frequency (Hz),Z' (Ω),-Z'' (Ω),Z (Ω),-Phase (°),Time (s)
1,1000000,1.36388,-1.58247,2.08911,-49.2431,19.0476
2,794330,0.968317,-1.4403,1.73554,-56.087,20.8808
3,630960,0.699164,-1.25339,1.4352,-60.8464,24.3139
4,501190,0.499118,-1.06548,1.17659,-64.8994,27.6298
5,398110,0.358626,-0.887993,0.957677,-68.0081,30.8594
6,316230,0.262317,-0.731542,0.777151,-70.2731,33.9662
7,251190,0.195611,-0.596533,0.627786,-71.845,37.0958
8,199530,0.152993,-0.485859,0.509378,-72.5213,38.8208
9,158490,0.12257,-0.394174,0.412792,-72.7267,40.6329
10,125890,0.101457,-0.319508,0.335229,-72.3832,42.3383
11,100000,0.0864727,-0.258896,0.272956,-71.5304,45.6514
12,79433,0.0756896,-0.209789,0.223025,-70.1611,47.2732
13,63096,0.0676392,-0.169854,0.182826,-68.2866,49.1199
14,50119,0.0616197,-0.137623,0.150788,-65.8799,50.9511
15,39811,0.0570365,-0.111399,0.125152,-62.8875,52.7621
16,31623,0.0535289,-0.089979,0.104697,-59.2514,54.5674
17,25119,0.050659,-0.0722837,0.0882682,-54.9758,56.3359
18,19953,0.048713,-0.0581673,0.0758709,-50.055,58.1637
19,15849,0.0473125,-0.0467126,0.0664872,-44.6345,59.8908
20,12589,0.0463106,-0.0374257,0.0595429,-38.9433,61.6075
21,10000,0.045424,-0.0298482,0.0543531,-33.309,64.7252
22,7943.3,0.0449597,-0.023737,0.0508411,-27.8323,66.3548
23,6309.6,0.0447124,-0.0188329,0.0485168,-22.8409,68.0663
24,5011.9,0.0443335,-0.0148034,0.0467397,-18.4647,69.8066
25,3981.1,0.0442698,-0.0116394,0.0457743,-14.7308,71.5181
26,3162.3,0.0442711,-0.00910287,0.0451972,-11.619,73.2333
27,2511.9,0.0443047,-0.0070672,0.0448648,-9.0631,75.0594
28,1995.3,0.0443636,-0.00542189,0.0446937,-6.96783,76.7815
29,1584.9,0.0444402,-0.00409547,0.0446285,-5.26532,78.4466
30,1258.9,0.0445362,-0.00303025,0.0446391,-3.89241,80.1384
31,1000,0.0447558,-0.00210526,0.0448053,-2.69315,81.8936
32,794.33,0.0449005,-0.00144343,0.0449237,-1.84127,83.7111
33,630.96,0.0448665,-0.000920363,0.044876,-1.17516,85.4082
34,501.19,0.0450137,-0.000503423,0.0450166,-0.640755,87.1361
35,398.11,0.0451948,-0.000172685,0.0451951,-0.218921,88.8663
36,316.23,0.045333,9.39358e-05,0.0453331,0.118724,90.5863
37,251.19,0.0455142,0.000306571,0.0455152,0.385922,92.3228
38,199.53,0.0456561,0.000486413,0.0456587,0.610397,94.0688
39,158.49,0.0458268,0.000641631,0.0458313,0.802158,95.8252
40,125.89,0.0459902,0.000775737,0.0459968,0.966341,97.6233
41,100,0.046159,0.000897485,0.0461677,1.11388,99.4145
42,79.433,0.0463183,0.00100271,0.0463292,1.24016,101.25
43,63.096,0.0465125,0.00110323,0.0465255,1.35874,103.154
44,50.119,0.0466585,0.00119842,0.0466738,1.47132,105.231
45,39.811,0.0468519,0.00129634,0.0468698,1.58491,107.167
46,31.623,0.0470471,0.00139314,0.0470677,1.69613,109.182
47,25.119,0.0473026,0.00149038,0.0473261,1.80464,111.262
48,19.953,0.0475421,0.00156855,0.0475679,1.88967,113.558
49,15.849,0.0478138,0.00163617,0.0478418,1.95988,115.906
50,12.589,0.0480746,0.00168476,0.0481041,2.0071,118.367
51,10,0.0483934,0.00170457,0.0484234,2.01731,121.075
52,7.9433,0.0486905,0.0016996,0.0487202,1.99917,123.765
53,6.3096,0.0489515,0.00167392,0.0489801,1.95849,126.57
54,5.0119,0.0491803,0.00163275,0.0492074,1.90148,129.411
55,3.9811,0.0494355,0.00159089,0.0494611,1.84321,132.238
56,3.1623,0.049628,0.00155445,0.0496523,1.79403,135.081
57,2.5119,0.0498105,0.00154083,0.0498343,1.77182,138.012
58,1.9953,0.0500018,0.00154417,0.0500257,1.76886,141.092
59,1.5849,0.0501603,0.00157224,0.050185,1.79531,144.222
60,1.2589,0.0503398,0.00163241,0.0503663,1.85733,147.531
61,1,0.0504462,0.00171864,0.0504755,1.95124,151.194
62,0.79433,0.0506376,0.00185389,0.0506715,2.09671,154.852
63,0.63096,0.0508258,0.00202311,0.050866,2.27944,158.753
64,0.50119,0.051067,0.00224643,0.0511164,2.51881,162.996
65,0.39811,0.051296,0.00248489,0.0513562,2.77336,167.592
66,0.31623,0.0515667,0.00278106,0.0516417,3.08704,172.81
67,0.25119,0.0518692,0.00314496,0.0519645,3.46974,178.694
68,0.19953,0.0522605,0.00349053,0.0523769,3.82117,185.341
69,0.15849,0.0526303,0.0039125,0.0527755,4.25152,193.022
70,0.12589,0.0530004,0.00440965,0.0531835,4.75607,201.95
71,0.1,0.053505,0.00500635,0.0537387,5.34548,212.52