File: tutorials/data/eis/NMC_2_Pristine_5C.txt
Index,Frequency (Hz),Z' (Ω),-Z'' (Ω),Z (Ω),-Phase (°),Time (s)
1,1000000,1.25372,-1.4809,1.94033,-49.7489,14.4115
2,794330,0.888916,-1.34705,1.61391,-56.5792,16.2785
3,630960,0.638972,-1.16427,1.32809,-61.2413,18.0943
4,501190,0.456324,-0.986858,1.08725,-65.1841,21.505
5,398110,0.328555,-0.821878,0.885117,-68.2103,26.1408
6,316230,0.240707,-0.675741,0.717332,-70.3935,29.2868
7,251190,0.180202,-0.550854,0.57958,-71.8854,32.3748
8,199530,0.141562,-0.448276,0.470097,-72.4742,34.1368
9,158490,0.113961,-0.363395,0.380845,-72.5885,35.9541
10,125890,0.0948908,-0.294296,0.309215,-72.1289,37.6639
11,100000,0.0813733,-0.238386,0.251892,-71.1526,40.9251
12,79433,0.0716297,-0.193095,0.205952,-69.6474,42.5523
13,63096,0.0643431,-0.156353,0.169075,-67.6317,44.3799
14,50119,0.0588299,-0.126606,0.139607,-65.0772,46.2053
15,39811,0.0545767,-0.102374,0.116013,-61.9373,47.9426
16,31623,0.0513418,-0.0826573,0.0973047,-58.1539,49.7648
17,25119,0.048645,-0.0662496,0.0821909,-53.7114,51.5935
18,19953,0.0468637,-0.0531361,0.0708495,-48.5891,53.3414
19,15849,0.0455617,-0.0423934,0.062234,-42.937,55.073
20,12589,0.0447102,-0.0336683,0.0559692,-36.981,56.7916
21,10000,0.0440837,-0.0265246,0.0514483,-31.0348,59.9466
22,7943.3,0.0437666,-0.0206911,0.0484112,-25.3029,61.5598
23,6309.6,0.0436751,-0.0159549,0.046498,-20.0677,63.2962
24,5011.9,0.0434882,-0.012023,0.0451196,-15.4543,65.0379
25,3981.1,0.043649,-0.00887623,0.0445423,-11.4946,66.7704
26,3162.3,0.0439244,-0.00629699,0.0443735,-8.15831,68.4818
27,2511.9,0.0442089,-0.00415815,0.044404,-5.37326,70.3056
28,1995.3,0.0446045,-0.00237132,0.0446675,-3.04317,72.0458
29,1584.9,0.0450498,-0.000861627,0.0450581,-1.09571,73.7179
30,1258.9,0.0455787,0.000419032,0.0455806,0.526739,75.422
31,1000,0.046275,0.00158039,0.0463019,1.95602,77.1566
32,794.33,0.0469329,0.00252228,0.0470006,3.07625,78.9736
33,630.96,0.0474502,0.00332941,0.0475669,4.01366,80.6743
34,501.19,0.04822,0.00405815,0.0483905,4.81062,82.4598
35,398.11,0.0490861,0.00471342,0.0493118,5.48493,84.1609
36,316.23,0.0499937,0.00529963,0.0502739,6.05109,85.9081
37,251.19,0.0509782,0.00582642,0.05131,6.52018,87.6675
38,199.53,0.052018,0.00629681,0.0523978,6.9021,89.3985
39,158.49,0.0531246,0.0067154,0.0535473,7.20447,91.1556
40,125.89,0.0542964,0.00707975,0.0547561,7.42892,92.9658
41,100,0.0554971,0.00739153,0.0559872,7.58644,94.7459
42,79.433,0.056746,0.00763006,0.0572566,7.65806,96.562
43,63.096,0.057975,0.00780113,0.0584975,7.6637,98.4899
44,50.119,0.0592039,0.00790958,0.05973,7.60959,100.558
45,39.811,0.060452,0.0079703,0.0609752,7.51084,102.496
46,31.623,0.0616271,0.00799396,0.0621434,7.39086,104.535
47,25.119,0.062766,0.00800752,0.0632747,7.27037,106.597
48,19.953,0.0638069,0.00802962,0.0643102,7.17254,108.886
49,15.849,0.064819,0.00814006,0.0653281,7.15782,111.251
50,12.589,0.0657314,0.00835466,0.0662602,7.24363,113.718
51,10,0.0666475,0.00872894,0.0672167,7.46166,116.407
52,7.9433,0.0675058,0.00929539,0.0681428,7.84019,119.149
53,6.3096,0.0684065,0.0101013,0.0691483,8.39995,121.97
54,5.0119,0.0693899,0.011178,0.0702845,9.15113,124.857
55,3.9811,0.0705234,0.0125562,0.0716325,10.0953,127.684
56,3.1623,0.0718661,0.0142688,0.0732689,11.2299,130.635
57,2.5119,0.0734855,0.0163111,0.075274,12.5147,133.651
58,1.9953,0.0755599,0.0186904,0.0778372,13.8937,136.697
59,1.5849,0.0781232,0.0213354,0.0809842,15.2749,139.817
60,1.2589,0.0813172,0.0242043,0.084843,16.5758,143.119
61,1,0.0851877,0.0271012,0.0893948,17.6477,146.78
62,0.79433,0.0898894,0.0299454,0.0947461,18.4248,150.474
63,0.63096,0.0952253,0.0324319,0.100597,18.8078,154.368
64,0.50119,0.101106,0.0344801,0.106824,18.8309,158.598
65,0.39811,0.10805,0.0359729,0.113881,18.4141,163.329
66,0.31623,0.114663,0.0366999,0.120393,17.7481,168.518
67,0.25119,0.120984,0.0368596,0.126474,16.9442,174.318
68,0.19953,0.127511,0.0364407,0.132616,15.9491,180.979
69,0.15849,0.133336,0.0357125,0.138036,14.994,188.746
70,0.12589,0.138746,0.0349334,0.143076,14.1322,197.743
71,0.1,0.143797,0.0346454,0.147912,13.5462,208.377