File: tutorials/data/eis/NMC_1_Pristine_35C.txt
Index,Frequency (Hz),Z' (Ω),-Z'' (Ω),Z (Ω),-Phase (°),Time (s)
1,1000000,1.2658,-1.45352,1.92743,-48.949,14.3356
2,794330,0.900917,-1.32393,1.60138,-55.7652,16.1739
3,630960,0.653238,-1.15139,1.32379,-60.4317,19.5952
4,501190,0.46906,-0.978488,1.08511,-64.3882,22.9062
5,398110,0.339886,-0.816597,0.884507,-67.4018,27.5683
6,316230,0.250869,-0.672702,0.717957,-69.5481,30.6988
7,251190,0.189308,-0.54941,0.58111,-70.9878,33.8129
8,199530,0.149697,-0.447592,0.471962,-71.5075,35.5431
9,158490,0.121383,-0.363549,0.383278,-71.5367,37.4221
10,125890,0.101666,-0.294965,0.311995,-70.9823,39.1435
11,100000,0.0875362,-0.239248,0.254759,-69.9034,42.3864
12,79433,0.0772787,-0.193957,0.208785,-68.276,44.1314
13,63096,0.06968,-0.157305,0.172047,-66.1086,45.954
14,50119,0.0639056,-0.12747,0.142592,-63.3737,47.7867
15,39811,0.0595204,-0.103182,0.119119,-60.0216,49.6468
16,31623,0.056182,-0.083328,0.100499,-56.0111,51.3761
17,25119,0.0534701,-0.0669346,0.0856697,-51.3807,53.1853
18,19953,0.0516511,-0.053811,0.0745887,-46.1733,55.0059
19,15849,0.0503474,-0.0431577,0.0663133,-40.6031,56.7868
20,12589,0.0494035,-0.0344963,0.0602553,-34.9249,58.517
21,10000,0.0486208,-0.0274421,0.0558306,-29.4409,61.6529
22,7943.3,0.0482176,-0.0217494,0.0528959,-24.2786,63.3139
23,6309.6,0.0480301,-0.0171757,0.0510088,-19.6772,65.055
24,5011.9,0.0476764,-0.0134057,0.0495252,-15.705,66.8718
25,3981.1,0.0476762,-0.0104445,0.0488069,-12.3566,68.6042
26,3162.3,0.0477666,-0.00806389,0.0484425,-9.58224,70.3449
27,2511.9,0.0478478,-0.00614202,0.0482404,-7.31481,72.0756
28,1995.3,0.0479547,-0.00457982,0.0481729,-5.45538,73.802
29,1584.9,0.0481194,-0.00332746,0.0482343,-3.95571,75.5066
30,1258.9,0.0482731,-0.00232226,0.0483289,-2.75419,77.2079
31,1000,0.0485872,-0.00144843,0.0486088,-1.70754,78.9414
32,794.33,0.048806,-0.000828278,0.048813,-0.972263,80.7628
33,630.96,0.0488257,-0.000344686,0.0488269,-0.404474,82.5046
34,501.19,0.0490323,4.19819e-05,0.0490323,0.0490572,84.2517
35,398.11,0.0492598,0.000346135,0.049261,0.402595,85.9481
36,316.23,0.0494817,0.000587778,0.0494852,0.680567,87.6878
37,251.19,0.0497154,0.000783312,0.0497215,0.902674,89.4497
38,199.53,0.0499459,0.000940626,0.0499547,1.07892,91.181
39,158.49,0.0501731,0.00107822,0.0501847,1.23109,92.9263
40,125.89,0.0504039,0.00119866,0.0504181,1.3623,94.7429
41,100,0.0505978,0.00131718,0.0506149,1.49121,96.5306
42,79.433,0.0508325,0.0014139,0.0508521,1.59327,98.3419
43,63.096,0.0510505,0.00150945,0.0510728,1.69361,100.193
44,50.119,0.0512575,0.00161191,0.0512828,1.80121,102.27
45,39.811,0.0514605,0.00172335,0.0514894,1.91805,104.223
46,31.623,0.0516707,0.00185145,0.0517039,2.05213,106.242
47,25.119,0.05194,0.0020034,0.0519786,2.20889,108.33
48,19.953,0.0522112,0.00216444,0.052256,2.37386,110.62
49,15.849,0.0525643,0.00235361,0.052617,2.56376,112.972
50,12.589,0.0529138,0.00254755,0.0529751,2.7564,115.358
51,10,0.0533336,0.00274023,0.053404,2.94121,118.047
52,7.9433,0.0538033,0.00290604,0.0538818,3.09167,120.801
53,6.3096,0.0542978,0.00303286,0.0543824,3.197,123.606
54,5.0119,0.0548462,0.00311129,0.0549344,3.24677,126.393
55,3.9811,0.0553815,0.00313476,0.0554701,3.23966,129.258
56,3.1623,0.0558767,0.00310731,0.055963,3.18294,132.21
57,2.5119,0.0563854,0.00305948,0.0564683,3.10583,135.158
58,1.9953,0.0568399,0.00299247,0.0569187,3.01369,138.23
59,1.5849,0.057258,0.00292663,0.0573328,2.92601,141.358
60,1.2589,0.0575783,0.00288153,0.0576504,2.865,144.654
61,1,0.0579438,0.00287091,0.0580148,2.83648,148.312
62,0.79433,0.0582647,0.00291375,0.0583375,2.86291,151.965
63,0.63096,0.0585571,0.00300074,0.0586339,2.93354,155.835
64,0.50119,0.0588524,0.00315091,0.0589367,3.06464,160.107
65,0.39811,0.0592101,0.00336119,0.0593054,3.24903,164.819
66,0.31623,0.0595633,0.00364818,0.0596749,3.50492,170.011
67,0.25119,0.0599251,0.00394825,0.060055,3.76956,175.847
68,0.19953,0.0604082,0.00437031,0.0605661,4.13793,182.455
69,0.15849,0.0609161,0.00485124,0.061109,4.55331,190.192
70,0.12589,0.0614063,0.00535345,0.0616392,4.98249,199.164
71,0.1,0.0619057,0.00602765,0.0621985,5.56126,209.831