File: tutorials/data/eis/NMC_1_Pristine_25C.txt
Index,Frequency (Hz),Z' (Ω),-Z'' (Ω),Z (Ω),-Phase (°),Time (s)
1,1000000,1.26506,-1.46232,1.93359,-49.1368,30.7171
2,794330,0.901348,-1.33342,1.60948,-55.9426,32.5398
3,630960,0.652147,-1.15686,1.32801,-60.589,35.9477
4,501190,0.468395,-0.982433,1.08838,-64.5096,39.2642
5,398110,0.339615,-0.81938,0.886973,-67.4871,43.906
6,316230,0.251123,-0.67503,0.720228,-69.5939,47.0401
7,251190,0.189747,-0.550914,0.582675,-70.9952,50.1517
8,199530,0.150385,-0.448769,0.473297,-71.4737,51.8742
9,158490,0.12223,-0.364571,0.384516,-71.4653,53.7023
10,125890,0.102595,-0.295983,0.313259,-70.8824,55.405
11,100000,0.0885187,-0.240357,0.256139,-69.7823,58.626
12,79433,0.078152,-0.195129,0.210198,-68.1732,60.2959
13,63096,0.0703839,-0.158631,0.173545,-66.0733,62.1125
14,50119,0.0643147,-0.128803,0.143968,-63.4659,63.9408
15,39811,0.0596313,-0.104554,0.120363,-60.3021,65.7684
16,31623,0.0559737,-0.0846445,0.101478,-56.5241,67.5163
17,25119,0.052952,-0.0680944,0.0862599,-52.1304,69.2422
18,19953,0.0509258,-0.0548488,0.0748454,-47.1241,71.075
19,15849,0.0494405,-0.043999,0.0661836,-41.6671,72.9183
20,12589,0.0484005,-0.0351697,0.0598291,-36.0036,74.7362
21,10000,0.0475995,-0.0279702,0.0552091,-30.4392,77.951
22,7943.3,0.0471277,-0.0221056,0.0520546,-25.1293,79.6555
23,6309.6,0.0468795,-0.0173687,0.0499936,-20.3295,81.3774
24,5011.9,0.0465379,-0.0134632,0.0484462,-16.1349,83.1042
25,3981.1,0.0465547,-0.0103722,0.0476962,-12.5602,84.8214
26,3162.3,0.0466644,-0.00786886,0.0473232,-9.57155,86.5529
27,2511.9,0.046785,-0.00582928,0.0471468,-7.10229,88.3802
28,1995.3,0.046965,-0.00416247,0.0471491,-5.06484,90.0924
29,1584.9,0.0472032,-0.00280524,0.0472864,-3.40103,91.8136
30,1258.9,0.0474678,-0.00170396,0.0474983,-2.05588,93.531
31,1000,0.0478947,-0.000749465,0.0479006,-0.896501,95.2424
32,794.33,0.0482475,-4.21457e-05,0.0482475,-0.0500496,97.0631
33,630.96,0.048409,0.000516003,0.0484118,0.610706,98.8016
34,501.19,0.0487729,0.000964945,0.0487824,1.13342,100.526
35,398.11,0.0491783,0.00131818,0.0491959,1.5354,102.23
36,316.23,0.0495831,0.00159267,0.0496087,1.83978,103.957
37,251.19,0.0500016,0.00180009,0.050034,2.0618,105.709
38,199.53,0.0503915,0.0019594,0.0504295,2.22674,107.435
39,158.49,0.0507661,0.00208362,0.0508089,2.3503,109.181
40,125.89,0.0511676,0.00218163,0.0512141,2.44143,111.011
41,100,0.0515461,0.00226892,0.051596,2.52038,112.782
42,79.433,0.0518781,0.00233128,0.0519304,2.57301,114.605
43,63.096,0.0522218,0.00238898,0.0522764,2.61927,116.482
44,50.119,0.0525426,0.00245731,0.0526,2.67766,118.583
45,39.811,0.052856,0.00253949,0.0529169,2.75069,120.531
46,31.623,0.0531338,0.00265179,0.0531999,2.85714,122.554
47,25.119,0.0534536,0.00281183,0.0535275,3.01117,124.659
48,19.953,0.053759,0.00301364,0.0538434,3.20855,126.96
49,15.849,0.0541285,0.00329157,0.0542285,3.47989,129.306
50,12.589,0.0545179,0.00363922,0.0546392,3.81899,131.78
51,10,0.05496,0.00405231,0.0551091,4.21691,134.474
52,7.9433,0.0554849,0.00452943,0.0556695,4.66691,137.22
53,6.3096,0.0561696,0.00504815,0.056396,5.13557,140.054
54,5.0119,0.0569777,0.00558129,0.0572504,5.59459,142.849
55,3.9811,0.0579287,0.00608688,0.0582476,5.99837,145.676
56,3.1623,0.0590109,0.00652008,0.0593701,6.305,148.597
57,2.5119,0.0602087,0.00684689,0.0605968,6.48777,151.53
58,1.9953,0.0614321,0.00703571,0.0618337,6.53351,154.622
59,1.5849,0.0626838,0.00708172,0.0630826,6.44568,157.74
60,1.2589,0.0638793,0.00701017,0.0642628,6.26263,161.061
61,1,0.0650021,0.00685891,0.0653629,6.02347,164.711
62,0.79433,0.0660128,0.00665968,0.0663479,5.76077,168.374
63,0.63096,0.0669342,0.0064719,0.0672464,5.52279,172.308
64,0.50119,0.067782,0.00636604,0.0680803,5.36544,176.562
65,0.39811,0.0684543,0.00628658,0.0687424,5.24711,181.284
66,0.31623,0.0692231,0.00631476,0.0695106,5.21228,186.469
67,0.25119,0.0699192,0.00651083,0.0702217,5.32,192.259
68,0.19953,0.0706459,0.00670565,0.0709635,5.42222,198.862
69,0.15849,0.07129,0.00708221,0.0716409,5.67336,206.567
70,0.12589,0.0720706,0.00763335,0.0724737,6.04593,215.495
71,0.1,0.0729392,0.00818329,0.0733968,6.40144,226.155