File: tutorials/data/eis/NMC_1_Pristine_15C.txt
Index,Frequency (Hz),Z' (Ω),-Z'' (Ω),Z (Ω),-Phase (°),Time (s)
1,1000000,1.12668,-1.28723,1.71067,-48.8053,14.4305
2,794330,0.804365,-1.17499,1.42394,-55.6056,16.2839
3,630960,0.584306,-1.01865,1.17434,-60.1611,18.0888
4,501190,0.421654,-0.864565,0.961907,-64.0012,21.5035
5,398110,0.307999,-0.721627,0.784607,-66.8866,26.164
6,316230,0.229502,-0.594442,0.637207,-68.8894,30.5997
7,251190,0.175074,-0.485123,0.515748,-70.1562,33.7253
8,199530,0.140203,-0.395008,0.419152,-70.4583,35.4606
9,158490,0.115276,-0.320689,0.340779,-70.2283,37.3259
10,125890,0.0979672,-0.259959,0.277806,-69.3508,39.0544
11,100000,0.0855835,-0.21051,0.227242,-67.8756,42.3574
12,79433,0.0767442,-0.170464,0.186942,-65.7623,44.0873
13,63096,0.0702188,-0.137942,0.154786,-63.0218,45.9079
14,50119,0.0653642,-0.111532,0.129274,-59.6273,47.7388
15,39811,0.0617142,-0.0900664,0.109182,-55.5808,49.5611
16,31623,0.0586777,-0.0722821,0.0931009,-50.9307,51.344
17,25119,0.0566571,-0.0581195,0.0811659,-45.73,53.0763
18,19953,0.0551754,-0.0465861,0.0722121,-40.1753,54.802
19,15849,0.0541137,-0.0372037,0.0656689,-34.5089,56.6331
20,12589,0.0533811,-0.029585,0.0610313,-28.9962,58.3725
21,10000,0.0528135,-0.023342,0.0577418,-23.8441,61.5165
22,7943.3,0.0525628,-0.018299,0.055657,-19.1949,63.1692
23,6309.6,0.0524886,-0.0142059,0.054377,-15.1441,64.9125
24,5011.9,0.0521898,-0.0108045,0.0532965,-11.6964,66.736
25,3981.1,0.0523315,-0.00810436,0.0529554,-8.80322,68.4431
26,3162.3,0.0525418,-0.00589734,0.0528717,-6.40413,70.166
27,2511.9,0.0527451,-0.00407235,0.0529021,-4.41494,71.9065
28,1995.3,0.0530294,-0.00256099,0.0530913,-2.76488,73.6159
29,1584.9,0.0533308,-0.00130686,0.0533468,-1.40374,75.2977
30,1258.9,0.0537285,-0.000267447,0.0537292,-0.285201,77.0391
31,1000,0.0543106,0.000656214,0.0543146,0.692249,78.7537
32,794.33,0.0547964,0.00137374,0.0548136,1.4361,80.5818
33,630.96,0.0550804,0.00195902,0.0551152,2.03696,82.2885
34,501.19,0.0556405,0.00246218,0.0556949,2.53378,84.0617
35,398.11,0.0562324,0.0028814,0.0563061,2.93332,85.7605
36,316.23,0.0568812,0.00322953,0.0569728,3.24957,87.4711
37,251.19,0.0575215,0.0035096,0.0576284,3.4915,89.2183
38,199.53,0.0581869,0.00373051,0.0583064,3.66835,90.9437
39,158.49,0.0588864,0.0039015,0.0590155,3.79057,92.6989
40,125.89,0.0595733,0.00402552,0.0597091,3.86575,94.5048
41,100,0.0602582,0.00411811,0.0603988,3.90958,96.313
42,79.433,0.0609325,0.00416191,0.0610744,3.90745,98.1308
43,63.096,0.0615733,0.00418167,0.0617152,3.8852,100.003
44,50.119,0.06218,0.00418487,0.0623206,3.85035,102.102
45,39.811,0.0627304,0.00419451,0.0628705,3.82543,104.051
46,31.623,0.0632661,0.00422559,0.063407,3.82116,106.085
47,25.119,0.0637872,0.00430297,0.0639322,3.85923,108.16
48,19.953,0.0642477,0.00442481,0.0643998,3.93981,110.47
49,15.849,0.0647412,0.00465058,0.064908,4.10869,112.821
50,12.589,0.0651972,0.00498372,0.0653874,4.37122,115.299
51,10,0.0656785,0.00543962,0.0659034,4.73454,117.988
52,7.9433,0.0662521,0.00603431,0.0665263,5.2042,120.698
53,6.3096,0.0669656,0.00677466,0.0673074,5.77675,123.531
54,5.0119,0.0677516,0.00765855,0.0681831,6.44926,126.317
55,3.9811,0.0687599,0.00866882,0.0693042,7.18559,129.179
56,3.1623,0.0699932,0.00978602,0.070674,7.95914,132.12
57,2.5119,0.0715252,0.0109513,0.0723587,8.70502,135.133
58,1.9953,0.0733533,0.012104,0.0743452,9.36991,138.267
59,1.5849,0.0754518,0.0131504,0.0765892,9.88668,141.425
60,1.2589,0.077796,0.0140191,0.0790491,10.2153,144.755
61,1,0.0803487,0.0146252,0.0816689,10.3161,148.435
62,0.79433,0.0830342,0.0149643,0.0843719,10.2161,152.084
63,0.63096,0.0856143,0.0150393,0.0869251,9.9631,156.018
64,0.50119,0.0881219,0.0149531,0.0893816,9.6306,160.306
65,0.39811,0.090466,0.0146524,0.0916449,9.20008,164.907
66,0.31623,0.0926809,0.0143552,0.0937861,8.80446,170.07
67,0.25119,0.0946391,0.0141526,0.0956914,8.50517,175.862
68,0.19953,0.0964639,0.0138862,0.0974583,8.1916,182.455
69,0.15849,0.0982055,0.013851,0.0991775,8.02811,190.132
70,0.12589,0.0998455,0.0141031,0.100837,8.03981,199.142
71,0.1,0.101555,0.0144436,0.102577,8.09456,209.756