File: tutorials/data/eis/NMC_3_Pristine_45C.txt
Index,Frequency (Hz),Z' (Ω),-Z'' (Ω),Z (Ω),-Phase (°),Time (s)
1,1000000,1.36824,-1.56443,2.07835,-48.8272,19.2783
2,794330,0.976964,-1.4255,1.72815,-55.5752,22.6722
3,630960,0.7094,-1.23954,1.42819,-60.2172,25.9787
4,501190,0.511151,-1.05265,1.17019,-64.0995,29.2866
5,398110,0.372731,-0.877637,0.953507,-66.9891,32.4896
6,316230,0.277469,-0.722843,0.774268,-69.0003,36.927
7,251190,0.211542,-0.58905,0.625884,-70.2455,38.5513
8,199530,0.169465,-0.479607,0.508666,-70.5396,40.3683
9,158490,0.139427,-0.388895,0.413133,-70.2762,42.1864
10,125890,0.118578,-0.314955,0.336537,-69.369,43.8917
11,100000,0.103854,-0.254743,0.275099,-67.8201,47.2215
12,79433,0.0932928,-0.205922,0.226069,-65.6271,48.8461
13,63096,0.0856737,-0.16632,0.187089,-62.7464,50.6433
14,50119,0.0800367,-0.134202,0.156257,-59.1886,52.4559
15,39811,0.0758902,-0.108126,0.132101,-54.9363,54.1955
16,31623,0.0729163,-0.0869751,0.113496,-50.0249,55.9229
17,25119,0.0706932,-0.0698762,0.0993992,-44.667,57.64
18,19953,0.0688215,-0.0558025,0.088602,-39.0362,59.4862
19,15849,0.0676264,-0.0446501,0.0810368,-33.4347,61.2286
20,12589,0.066817,-0.0356519,0.0757335,-28.0833,63.0614
21,10000,0.0662876,-0.0284034,0.0721166,-23.1945,66.1763
22,7943.3,0.0659793,-0.0225443,0.0697245,-18.8647,67.8173
23,6309.6,0.0657819,-0.0178277,0.0681549,-15.1636,69.5494
24,5011.9,0.0653724,-0.0139683,0.0668481,-12.0612,71.2949
25,3981.1,0.0653268,-0.0109383,0.0662362,-9.50537,73.0061
26,3162.3,0.0654481,-0.00851677,0.0659999,-7.41424,74.7115
27,2511.9,0.065477,-0.00655035,0.0658039,-5.71288,76.4379
28,1995.3,0.0655282,-0.00497681,0.0657169,-4.34323,78.1622
29,1584.9,0.0655784,-0.00371803,0.0656838,-3.24497,79.8242
30,1258.9,0.0657166,-0.00271156,0.0657725,-2.36276,81.5284
31,1000,0.0659628,-0.00188625,0.0659898,-1.63797,83.2498
32,794.33,0.0661319,-0.00125425,0.0661438,-1.08653,85.0826
33,630.96,0.0663225,-0.000752672,0.0663268,-0.650203,86.7948
34,501.19,0.066154,-0.000361125,0.066155,-0.312766,88.5297
35,398.11,0.0663718,-4.62434e-05,0.0663719,-0.0399198,90.2244
36,316.23,0.0665195,0.0002016,0.0665198,0.173646,91.9783
37,251.19,0.0666584,0.000404823,0.0666597,0.347958,93.7341
38,199.53,0.0668611,0.000570768,0.0668635,0.489101,95.4502
39,158.49,0.0670383,0.000714499,0.0670421,0.61064,97.1872
40,125.89,0.0671793,0.000843487,0.0671846,0.719354,98.9892
41,100,0.0673719,0.000966662,0.0673788,0.822032,100.762
42,79.433,0.0675316,0.00106373,0.06754,0.902425,102.583
43,63.096,0.0677074,0.00115627,0.0677173,0.978372,104.485
44,50.119,0.0679084,0.00125041,0.0679199,1.05488,106.576
45,39.811,0.0680161,0.00134146,0.0680293,1.12988,108.507
46,31.623,0.0682995,0.00144205,0.0683147,1.20954,110.548
47,25.119,0.0684428,0.00153335,0.06846,1.28341,112.61
48,19.953,0.068716,0.00161054,0.0687349,1.34263,114.9
49,15.849,0.0690736,0.00168576,0.0690942,1.39804,117.288
50,12.589,0.0693117,0.00173271,0.0693333,1.43202,119.746
51,10,0.0695763,0.00176285,0.0695987,1.45138,122.427
52,7.9433,0.0698896,0.00175166,0.0699116,1.43572,125.152
53,6.3096,0.0701794,0.00172769,0.0702007,1.41024,127.97
54,5.0119,0.070414,0.00168127,0.0704341,1.36779,130.851
55,3.9811,0.070666,0.0016356,0.0706849,1.3259,133.657
56,3.1623,0.0708681,0.00161271,0.0708864,1.30363,136.61
57,2.5119,0.0710499,0.00157064,0.0710673,1.26638,139.627
58,1.9953,0.0711906,0.00156861,0.0712078,1.26225,142.706
59,1.5849,0.0713422,0.0015894,0.0713599,1.27626,145.859
60,1.2589,0.0715087,0.00164886,0.0715277,1.3209,149.194
61,1,0.0716513,0.00172195,0.0716719,1.37669,152.834
62,0.79433,0.0718467,0.00185675,0.0718707,1.48038,156.554
63,0.63096,0.0719999,0.00202597,0.0720284,1.6118,160.438
64,0.50119,0.0722069,0.00222984,0.0722413,1.7688,164.666
65,0.39811,0.0724125,0.00247774,0.0724549,1.95973,169.285
66,0.31623,0.072702,0.00278,0.0727552,2.18983,174.493
67,0.25119,0.0729751,0.00310395,0.073041,2.43557,180.305
68,0.19953,0.073348,0.00349559,0.0734313,2.72852,187.035
69,0.15849,0.0737001,0.00391744,0.0738041,3.04263,194.747
70,0.12589,0.0740898,0.00436812,0.0742184,3.37409,203.682
71,0.1,0.0744335,0.00497785,0.0745997,3.82605,214.258