File: tutorials/data/eis/NMC_3_Pristine_35C.txt
Index,Frequency (Hz),Z' (Ω),-Z'' (Ω),Z (Ω),-Phase (°),Time (s)
1,1000000,1.28618,-1.4711,1.95407,-48.837,18.9712
2,794330,0.918135,-1.34063,1.62489,-55.5947,20.8043
3,630960,0.667761,-1.16562,1.34334,-60.1925,24.1938
4,501190,0.481426,-0.990078,1.10092,-64.0686,27.4991
5,398110,0.351329,-0.827001,0.898534,-66.9831,32.1381
6,316230,0.261288,-0.681247,0.729637,-69.016,35.2521
7,251190,0.199112,-0.557079,0.591594,-70.332,38.4143
8,199530,0.159008,-0.454591,0.481598,-70.721,40.1557
9,158490,0.129985,-0.36979,0.39197,-70.6328,41.9565
10,125890,0.109592,-0.300721,0.320068,-69.9766,43.6995
11,100000,0.0947697,-0.244711,0.262421,-68.83,46.9966
12,79433,0.0837298,-0.198947,0.215848,-67.1755,48.6218
13,63096,0.075371,-0.161777,0.178473,-65.0194,50.4697
14,50119,0.0689173,-0.131363,0.148343,-62.317,52.2974
15,39811,0.0640341,-0.106546,0.124308,-58.9941,54.1203
16,31623,0.0603147,-0.0861365,0.105154,-54.9994,55.9492
17,25119,0.0572697,-0.0691674,0.0897995,-50.3757,57.665
18,19953,0.0552778,-0.0556212,0.0784178,-45.1774,59.3822
19,15849,0.053854,-0.0446028,0.0699262,-39.6321,61.1082
20,12589,0.0528599,-0.0356679,0.0637681,-34.01,62.8632
21,10000,0.0520891,-0.0283888,0.0593228,-28.5906,66.0762
22,7943.3,0.0516176,-0.0224875,0.0563033,-23.5406,67.695
23,6309.6,0.0514163,-0.0177615,0.0543976,-19.0572,69.4554
24,5011.9,0.0510302,-0.0138635,0.0528798,-15.1988,71.2626
25,3981.1,0.0510361,-0.0108023,0.0521667,-11.9508,72.9897
26,3162.3,0.0510991,-0.00833716,0.0517747,-9.26655,74.6921
27,2511.9,0.0511694,-0.00634279,0.051561,-7.06616,76.4478
28,1995.3,0.0512765,-0.00472922,0.0514941,-5.26947,78.153
29,1584.9,0.0514322,-0.00343461,0.0515468,-3.82051,79.85
30,1258.9,0.0515788,-0.00239536,0.0516343,-2.65895,81.5671
31,1000,0.0519183,-0.00151014,0.0519402,-1.66609,83.2837
32,794.33,0.0521686,-0.000866228,0.0521758,-0.951274,85.1052
33,630.96,0.0521598,-0.000359487,0.052161,-0.394878,86.8168
34,501.19,0.0523814,4.23629e-05,0.0523815,0.0463373,88.6072
35,398.11,0.0526077,0.000361379,0.052609,0.393576,90.3046
36,316.23,0.0528589,0.000613006,0.0528625,0.664431,92.0169
37,251.19,0.0530923,0.000814072,0.0530985,0.878456,93.7685
38,199.53,0.0533388,0.000979115,0.0533477,1.05163,95.5054
39,158.49,0.0535415,0.00111759,0.0535532,1.19578,97.2698
40,125.89,0.0537852,0.00124283,0.0537996,1.32371,99.053
41,100,0.0540251,0.00136062,0.0540422,1.44269,100.881
42,79.433,0.0542284,0.00145889,0.054248,1.54104,102.698
43,63.096,0.0544391,0.00155543,0.0544613,1.6366,104.545
44,50.119,0.0546782,0.00165822,0.0547034,1.73707,106.605
45,39.811,0.0548963,0.00177148,0.0549249,1.84827,108.563
46,31.623,0.0551152,0.00190235,0.055148,1.97683,110.575
47,25.119,0.0553553,0.00205673,0.0553935,2.12785,112.64
48,19.953,0.0556323,0.00221904,0.0556766,2.28418,114.937
49,15.849,0.0560008,0.00241054,0.0560526,2.46476,117.275
50,12.589,0.0563777,0.00261014,0.0564381,2.65075,119.727
51,10,0.0568016,0.00280064,0.0568706,2.82271,122.42
52,7.9433,0.057262,0.00296851,0.0573388,2.96761,125.107
53,6.3096,0.0577873,0.00309924,0.0578704,3.06993,127.92
54,5.0119,0.0583456,0.00317328,0.0584319,3.11311,130.705
55,3.9811,0.0588995,0.00319345,0.058986,3.10346,133.565
56,3.1623,0.0594056,0.00316078,0.0594896,3.04565,136.498
57,2.5119,0.0598946,0.00309615,0.0599745,2.95918,139.535
58,1.9953,0.0603614,0.00302248,0.060437,2.86658,142.583
59,1.5849,0.0607729,0.00294595,0.0608443,2.77522,145.795
60,1.2589,0.0611184,0.00289288,0.0611868,2.70993,149.098
61,1,0.0614676,0.00287897,0.061535,2.68161,152.807
62,0.79433,0.0617654,0.00290299,0.0618336,2.69094,156.44
63,0.63096,0.0620786,0.0029831,0.0621502,2.75116,160.32
64,0.50119,0.0623368,0.00313056,0.0624154,2.87499,164.577
65,0.39811,0.0626953,0.00335494,0.062785,3.06309,169.198
66,0.31623,0.0630245,0.00363035,0.063129,3.29672,174.358
67,0.25119,0.063447,0.00397299,0.0635712,3.58313,180.164
68,0.19953,0.0638217,0.00437719,0.0639716,3.92347,186.833
69,0.15849,0.0642788,0.00485818,0.0644621,4.32219,194.521
70,0.12589,0.0648294,0.0054207,0.0650556,4.77966,203.523
71,0.1,0.0653905,0.00594981,0.0656606,5.19896,214.093