File: tutorials/data/eis/NMC_3_Pristine_5C.txt
Index,Frequency (Hz),Z' (Ω),-Z'' (Ω),Z (Ω),-Phase (°),Time (s)
1,1000000,1.25052,-1.46893,1.92913,-49.5918,19.0304
2,794330,0.888536,-1.33635,1.60478,-56.3801,20.8667
3,630960,0.640681,-1.15559,1.32131,-60.9952,22.6753
4,501190,0.458947,-0.978975,1.08121,-64.8826,26.1623
5,398110,0.332253,-0.815658,0.880733,-67.8368,30.7832
6,316230,0.245175,-0.671228,0.714603,-69.9346,33.8997
7,251190,0.184929,-0.547273,0.577673,-71.3294,37.0251
8,199530,0.146399,-0.445628,0.46906,-71.8135,38.753
9,158490,0.118828,-0.361892,0.380902,-71.8223,40.594
10,125890,0.0996343,-0.293729,0.310167,-71.2628,42.3104
11,100000,0.0858113,-0.238352,0.253328,-70.2001,45.5526
12,79433,0.0756537,-0.193313,0.207589,-68.6269,47.1819
13,63096,0.0680335,-0.156888,0.171004,-66.5564,49.0052
14,50119,0.0622115,-0.127275,0.141666,-63.9509,50.8222
15,39811,0.0576856,-0.103009,0.118061,-60.7508,52.6422
16,31623,0.0542651,-0.0832078,0.099339,-56.8891,54.3681
17,25119,0.0514515,-0.0667434,0.084273,-52.3719,56.1261
18,19953,0.0495762,-0.0535485,0.0729743,-47.206,57.9432
19,15849,0.0482526,-0.0427868,0.0644905,-41.5642,59.6591
20,12589,0.0473543,-0.034031,0.0583141,-35.7027,61.3908
21,10000,0.0466085,-0.0268567,0.0537925,-29.9514,64.5138
22,7943.3,0.0462757,-0.0210191,0.0508256,-24.4283,66.1429
23,6309.6,0.046178,-0.016279,0.0489634,-19.4189,67.8668
24,5011.9,0.045935,-0.0123325,0.0475617,-15.0282,69.6119
25,3981.1,0.0460623,-0.00917877,0.046968,-11.2696,71.3179
26,3162.3,0.0463201,-0.00659811,0.0467876,-8.10702,73.0238
27,2511.9,0.0465808,-0.00445704,0.0467935,-5.46566,74.7855
28,1995.3,0.0469319,-0.00266496,0.0470075,-3.24997,76.4957
29,1584.9,0.0473252,-0.00115487,0.0473393,-1.3979,78.1706
30,1258.9,0.0478149,0.000126292,0.0478151,0.151333,79.8665
31,1000,0.0484469,0.0013058,0.0484645,1.54393,81.6215
32,794.33,0.0490576,0.00224373,0.0491088,2.61869,83.4393
33,630.96,0.0495061,0.00304567,0.0495997,3.52046,85.155
34,501.19,0.0502361,0.00377116,0.0503775,4.29306,86.887
35,398.11,0.05106,0.00442691,0.0512515,4.95516,88.5906
36,316.23,0.0519327,0.00501614,0.0521744,5.51704,90.3095
37,251.19,0.0528568,0.00554674,0.053147,5.99064,92.0702
38,199.53,0.0538713,0.00602709,0.0542074,6.38367,93.8001
39,158.49,0.0549292,0.00645725,0.0553075,6.70468,95.5502
40,125.89,0.0560403,0.00683786,0.0564559,6.95667,97.3488
41,100,0.0571858,0.007173,0.0576339,7.14945,99.1529
42,79.433,0.0583686,0.0074354,0.0588403,7.25964,100.989
43,63.096,0.059605,0.00764645,0.0600934,7.31028,102.967
44,50.119,0.0608045,0.0077968,0.0613023,7.30702,105.133
45,39.811,0.0620407,0.00789637,0.0625412,7.25345,107.129
46,31.623,0.0632428,0.00795522,0.0637412,7.1695,109.178
47,25.119,0.064371,0.00799171,0.0648652,7.07711,111.261
48,19.953,0.0654506,0.00803299,0.0659417,6.99712,113.545
49,15.849,0.0664544,0.00813823,0.0669509,6.98187,115.9
50,12.589,0.0674304,0.00834973,0.0679454,7.05886,118.439
51,10,0.0682925,0.0087055,0.0688451,7.26453,121.163
52,7.9433,0.0691594,0.00925267,0.0697756,7.62021,123.993
53,6.3096,0.0700895,0.0100403,0.070805,8.15218,126.843
54,5.0119,0.0710343,0.0110873,0.0718944,8.87139,129.656
55,3.9811,0.0721224,0.012447,0.0731886,9.79178,132.507
56,3.1623,0.0734305,0.014138,0.0747792,10.8981,135.436
57,2.5119,0.0749962,0.0161721,0.0767201,12.1689,138.438
58,1.9953,0.0770166,0.0185613,0.0792217,13.5501,141.543
59,1.5849,0.079521,0.0212427,0.0823094,14.9564,144.675
60,1.2589,0.0826292,0.0241489,0.0860858,16.2913,148.013
61,1,0.0864576,0.0271751,0.0906278,17.4488,151.738
62,0.79433,0.0910172,0.0300678,0.0958551,18.2811,155.387
63,0.63096,0.0963774,0.0327388,0.101786,18.7623,159.291
64,0.50119,0.102872,0.0350564,0.108681,18.8179,163.504
65,0.39811,0.109387,0.0367734,0.115403,18.5814,168.194
66,0.31623,0.116078,0.0376883,0.122043,17.9876,173.342
67,0.25119,0.122914,0.0377788,0.128589,17.0853,179.183
68,0.19953,0.129227,0.0374148,0.134534,16.1472,185.818
69,0.15849,0.135409,0.0369729,0.140366,15.2722,193.523
70,0.12589,0.141045,0.0359375,0.145551,14.2945,202.487
71,0.1,0.146251,0.0350578,0.150395,13.48,213.122