File: tutorials/data/eis/NMC_2_Pristine_15C.txt
Index,Frequency (Hz),Z' (Ω),-Z'' (Ω),Z (Ω),-Phase (°),Time (s)
1,1000000,1.13695,-1.28594,1.71648,-48.5187,14.7687
2,794330,0.814117,-1.17366,1.42838,-55.2526,16.6241
3,630960,0.594303,-1.01822,1.17897,-59.7291,20.0785
4,501190,0.431652,-0.864933,0.966661,-63.4781,24.7978
5,398110,0.317655,-0.721646,0.788465,-66.2418,28.0185
6,316230,0.239354,-0.595865,0.642141,-68.1151,32.461
7,251190,0.184498,-0.486849,0.520635,-69.2451,35.5954
8,199530,0.149211,-0.397246,0.424344,-69.4131,37.3206
9,158490,0.123776,-0.323518,0.346388,-69.0635,39.1639
10,125890,0.105732,-0.262958,0.283419,-68.0957,40.8708
11,100000,0.0926349,-0.21381,0.233015,-66.5749,44.1866
12,79433,0.0830184,-0.173825,0.192632,-64.471,45.8472
13,63096,0.075706,-0.141094,0.160121,-61.7836,47.6684
14,50119,0.0701952,-0.114443,0.134256,-58.4767,49.5269
15,39811,0.0660134,-0.092626,0.113742,-54.523,51.2576
16,31623,0.0628612,-0.0747473,0.0976662,-49.9367,53.0915
17,25119,0.0602687,-0.0599231,0.0849888,-44.8353,54.92
18,19953,0.0586256,-0.0480805,0.0758201,-39.3562,56.7361
19,15849,0.0574623,-0.0384232,0.069125,-33.7694,58.476
20,12589,0.056636,-0.0305515,0.0643508,-28.3441,60.2975
21,10000,0.0560551,-0.0241512,0.0610365,-23.3086,63.4497
22,7943.3,0.0557202,-0.0189252,0.0588464,-18.7599,65.1331
23,6309.6,0.0556264,-0.0147015,0.0575364,-14.8042,66.8555
24,5011.9,0.0553539,-0.0112032,0.0564763,-11.4417,68.6686
25,3981.1,0.0554776,-0.00841333,0.056112,-8.62335,70.393
26,3162.3,0.0556892,-0.00613394,0.056026,-6.28556,72.1483
27,2511.9,0.0559059,-0.00424735,0.0560671,-4.3446,73.8772
28,1995.3,0.0561665,-0.00268552,0.0562307,-2.73742,75.6079
29,1584.9,0.0565136,-0.00139091,0.0565307,-1.40988,77.3188
30,1258.9,0.0568759,-0.000313584,0.0568767,-0.315896,79.0213
31,1000,0.0574301,0.00063214,0.0574336,0.630636,80.7517
32,794.33,0.0579195,0.00137465,0.0579359,1.35959,82.5794
33,630.96,0.0582147,0.00197865,0.0582483,1.94666,84.3434
34,501.19,0.0587775,0.00249852,0.0588305,2.43407,86.0751
35,398.11,0.0594108,0.0029334,0.0594832,2.82668,87.7862
36,316.23,0.0600708,0.00329164,0.060161,3.13644,89.5127
37,251.19,0.0607454,0.00358125,0.0608509,3.37398,91.2851
38,199.53,0.061425,0.0038098,0.0615431,3.54914,93.0266
39,158.49,0.062117,0.003983,0.0622446,3.66884,94.7871
40,125.89,0.0628141,0.0041083,0.0629483,3.74205,96.7712
41,100,0.0635389,0.00420374,0.0636778,3.78518,98.5487
42,79.433,0.0641902,0.00424542,0.0643304,3.78392,100.365
43,63.096,0.0648741,0.0042668,0.0650143,3.76295,102.222
44,50.119,0.0654376,0.0042709,0.0655768,3.73421,104.314
45,39.811,0.0660377,0.00428228,0.0661764,3.71021,106.27
46,31.623,0.0665993,0.00431701,0.066739,3.70876,108.305
47,25.119,0.0671046,0.00440027,0.0672488,3.7517,110.426
48,19.953,0.0676005,0.0045378,0.0677526,3.84032,112.732
49,15.849,0.0680787,0.00477156,0.0682457,4.00924,115.074
50,12.589,0.0685684,0.00511854,0.0687592,4.26913,117.553
51,10,0.0690762,0.00559036,0.0693021,4.62688,120.258
52,7.9433,0.0696447,0.00620314,0.0699204,5.08981,122.962
53,6.3096,0.0703579,0.00696273,0.0707016,5.65167,125.777
54,5.0119,0.0712115,0.00786901,0.0716449,6.30572,128.572
55,3.9811,0.072228,0.00888996,0.072773,7.01678,131.412
56,3.1623,0.0735313,0.0100191,0.0742107,7.75913,134.36
57,2.5119,0.075075,0.0111828,0.0759033,8.47217,137.296
58,1.9953,0.0769681,0.0123296,0.0779493,9.10092,140.358
59,1.5849,0.0791288,0.0133482,0.0802468,9.57507,143.495
60,1.2589,0.0815603,0.0141815,0.082784,9.86383,146.802
61,1,0.0841173,0.0147541,0.0854015,9.94846,150.525
62,0.79433,0.0868049,0.01506,0.0881016,9.84245,154.219
63,0.63096,0.0894307,0.0150841,0.0906939,9.57388,158.086
64,0.50119,0.0918919,0.0149573,0.0931013,9.24498,162.352
65,0.39811,0.0942592,0.0146199,0.0953862,8.81649,167.067
66,0.31623,0.0963745,0.0142847,0.0974274,8.43101,172.263
67,0.25119,0.0982962,0.0140657,0.0992975,8.14346,178.105
68,0.19953,0.100206,0.0137894,0.10115,7.83531,184.711
69,0.15849,0.101839,0.0137441,0.102763,7.68611,192.408
70,0.12589,0.103908,0.0139999,0.104847,7.67347,201.391
71,0.1,0.105606,0.0145566,0.106605,7.84809,212.004