File: tutorials/data/eis/NMC_3_Pristine_15C.txt
Index,Frequency (Hz),Z' (Ω),-Z'' (Ω),Z (Ω),-Phase (°),Time (s)
1,1000000,1.12625,-1.28866,1.71145,-48.8475,54.0868
2,794330,0.803432,-1.17584,1.42411,-55.6558,55.9246
3,630960,0.583299,-1.01939,1.17447,-60.2216,59.3422
4,501190,0.420676,-0.865214,0.962062,-64.0705,62.6595
5,398110,0.307198,-0.722272,0.784887,-66.9589,67.3008
6,316230,0.22873,-0.59529,0.63772,-68.9816,71.7259
7,251190,0.174223,-0.485888,0.516179,-70.2738,74.8278
8,199530,0.139332,-0.396041,0.419836,-70.6176,76.579
9,158490,0.114272,-0.321815,0.341501,-70.4507,78.4038
10,125890,0.0967395,-0.261177,0.278518,-69.6755,80.1266
11,100000,0.0841861,-0.212053,0.228153,-68.3467,83.4548
12,79433,0.0750196,-0.172093,0.187733,-66.4464,85.1716
13,63096,0.0681514,-0.139636,0.155379,-63.9846,87.0003
14,50119,0.0629036,-0.113182,0.129487,-60.9358,88.8222
15,39811,0.0589026,-0.0916595,0.108954,-57.2742,90.6558
16,31623,0.0555928,-0.073772,0.0923735,-52.9992,92.3729
17,25119,0.053333,-0.0594537,0.0798696,-48.1063,94.1051
18,19953,0.0516297,-0.0477076,0.0702968,-42.739,95.9544
19,15849,0.0504457,-0.0381688,0.0632584,-37.1123,97.7921
20,12589,0.0496258,-0.0303934,0.0581935,-31.4855,99.5257
21,10000,0.0489872,-0.0240349,0.0545658,-26.1342,102.769
22,7943.3,0.0486514,-0.018852,0.0521762,-21.1809,104.406
23,6309.6,0.0485445,-0.014658,0.0507092,-16.8017,106.128
24,5011.9,0.0482799,-0.0111769,0.0495568,-13.0345,107.85
25,3981.1,0.0483877,-0.00840236,0.0491118,-9.85098,109.58
26,3162.3,0.0485854,-0.00613618,0.0489713,-7.19817,111.284
27,2511.9,0.0487815,-0.00426965,0.048968,-5.00212,113.035
28,1995.3,0.0490588,-0.00272086,0.0491341,-3.17445,114.766
29,1584.9,0.0493702,-0.00143551,0.049391,-1.66549,116.363
30,1258.9,0.0497583,-0.000367475,0.0497597,-0.423133,118.059
31,1000,0.0503168,0.000588288,0.0503202,0.669854,119.784
32,794.33,0.0508237,0.00132816,0.050841,1.49695,121.625
33,630.96,0.051127,0.00193543,0.0511636,2.16791,123.329
34,501.19,0.0516915,0.00245825,0.0517499,2.72272,125.066
35,398.11,0.0522979,0.00289882,0.0523782,3.1726,126.766
36,316.23,0.0529191,0.00326302,0.0530196,3.52843,128.494
37,251.19,0.0535989,0.0035658,0.0537174,3.80614,130.241
38,199.53,0.0542736,0.00380571,0.0544069,4.01106,131.968
39,158.49,0.0549917,0.00399778,0.0551369,4.15797,133.725
40,125.89,0.0556864,0.00414111,0.0558401,4.25297,135.518
41,100,0.0564002,0.00425141,0.0565602,4.31077,137.29
42,79.433,0.0570961,0.00430919,0.0572585,4.31607,139.107
43,63.096,0.0577729,0.00434319,0.057936,4.29923,141.03
44,50.119,0.0584025,0.00435544,0.0585646,4.26502,143.11
45,39.811,0.0590171,0.00437319,0.0591789,4.2379,145.055
46,31.623,0.0595596,0.00440562,0.0597223,4.23046,147.104
47,25.119,0.0601108,0.00448485,0.0602779,4.26691,149.189
48,19.953,0.0606106,0.00461222,0.0607859,4.35159,151.463
49,15.849,0.0611104,0.00484282,0.061302,4.53106,153.848
50,12.589,0.0616106,0.00518353,0.0618283,4.80918,156.325
51,10,0.0621373,0.00565207,0.0623938,5.19738,159.024
52,7.9433,0.0627285,0.00626623,0.0630407,5.70461,161.74
53,6.3096,0.0634231,0.00702704,0.0638112,6.32237,164.557
54,5.0119,0.0642623,0.00793947,0.0647509,7.04307,167.38
55,3.9811,0.0652859,0.00898591,0.0659014,7.83691,170.195
56,3.1623,0.0665465,0.0101361,0.067314,8.66048,173.142
57,2.5119,0.0681267,0.0113478,0.0690653,9.45689,176.166
58,1.9953,0.0700218,0.0125412,0.071136,10.1542,179.278
59,1.5849,0.072224,0.0136245,0.0734979,10.6829,182.408
60,1.2589,0.0746739,0.0145123,0.076071,10.9979,185.752
61,1,0.0773641,0.0151344,0.0788305,11.0688,189.401
62,0.79433,0.0801051,0.015459,0.0815831,10.9229,193.107
63,0.63096,0.0827515,0.0154905,0.0841888,10.6027,197.002
64,0.50119,0.0853836,0.0153278,0.0867485,10.1771,201.245
65,0.39811,0.0877573,0.0150501,0.0890385,9.73141,205.874
66,0.31623,0.0899651,0.0147046,0.0911589,9.28276,211.064
67,0.25119,0.0920516,0.0143379,0.0931615,8.85321,216.902
68,0.19953,0.0939109,0.0142139,0.0949804,8.6067,223.516
69,0.15849,0.0955932,0.0141166,0.0966299,8.40037,231.158
70,0.12589,0.0973673,0.0142153,0.0983995,8.30629,240.088
71,0.1,0.0987279,0.0144792,0.0997839,8.34337,250.668