File: tutorials/data/eis/NMC_1_Pristine_45C.txt
Index,Frequency (Hz),Z' (Ω),-Z'' (Ω),Z (Ω),-Phase (°),Time (s)
1,1000000,1.38856,-1.62327,2.13614,-49.456,19.1142
2,794330,0.985256,-1.47723,1.77565,-56.2982,22.4329
3,630960,0.70944,-1.285,1.46783,-61.0972,25.7584
4,501190,0.504813,-1.09105,1.20217,-65.1706,29.0873
5,398110,0.361423,-0.909028,0.978242,-68.3176,32.3081
6,316230,0.263176,-0.748544,0.793461,-70.6292,35.4413
7,251190,0.195365,-0.610738,0.641225,-72.2614,38.5694
8,199530,0.151728,-0.496469,0.519137,-73.0061,40.3067
9,158490,0.120807,-0.402567,0.420303,-73.2959,42.156
10,125890,0.0994609,-0.32569,0.340539,-73.0181,43.8531
11,100000,0.0844729,-0.263499,0.276709,-72.2251,47.1515
12,79433,0.0738078,-0.213063,0.225485,-70.8933,48.7841
13,63096,0.065986,-0.172135,0.184349,-69.0263,50.6025
14,50119,0.0602207,-0.139046,0.151527,-66.5827,52.4216
15,39811,0.0559024,-0.112176,0.125334,-63.5109,54.2789
16,31623,0.0527221,-0.0904634,0.104705,-59.7663,56.096
17,25119,0.0500853,-0.0725274,0.0881406,-55.3722,57.9035
18,19953,0.0483309,-0.0582848,0.0757166,-50.3338,59.6255
19,15849,0.047033,-0.0467291,0.0663002,-44.8143,61.3743
20,12589,0.04613,-0.0374103,0.0593928,-39.0412,63.1907
21,10000,0.0453482,-0.0298201,0.0542743,-33.3281,66.3103
22,7943.3,0.0449316,-0.0237087,0.0508031,-27.8189,67.9791
23,6309.6,0.0447042,-0.0188021,0.0484973,-22.8111,69.6999
24,5011.9,0.0443293,-0.0147648,0.0467235,-18.4214,71.5227
25,3981.1,0.0443123,-0.0116114,0.0458084,-14.6834,73.275
26,3162.3,0.0443211,-0.00907362,0.0452404,-11.57,74.9665
27,2511.9,0.0443561,-0.00703663,0.0449108,-9.01425,76.689
28,1995.3,0.0444044,-0.005392,0.0447306,-6.92349,78.3959
29,1584.9,0.0444962,-0.00407008,0.044682,-5.22632,80.1476
30,1258.9,0.0446129,-0.00301092,0.0447144,-3.86103,81.845
31,1000,0.0448191,-0.00210236,0.0448684,-2.68565,83.5665
32,794.33,0.0449902,-0.00144179,0.0450133,-1.83552,85.3847
33,630.96,0.0449513,-0.000919199,0.0449607,-1.17147,87.1048
34,501.19,0.0451083,-0.000503242,0.0451111,-0.639183,88.8673
35,398.11,0.045282,-0.000171948,0.0452824,-0.217566,90.5635
36,316.23,0.0454275,9.18833e-05,0.0454276,0.115888,92.3156
37,251.19,0.0455832,0.000305627,0.0455842,0.384152,94.0754
38,199.53,0.0457592,0.000482163,0.0457618,0.603701,95.7968
39,158.49,0.0459182,0.000639543,0.0459227,0.797957,97.5493
40,125.89,0.0460887,0.000772616,0.0460952,0.960398,99.3569
41,100,0.0462549,0.00089569,0.0462635,1.10935,101.134
42,79.433,0.0464308,0.0010015,0.0464416,1.23567,102.973
43,63.096,0.046594,0.00110012,0.0466069,1.35255,104.884
44,50.119,0.0467681,0.00119468,0.0467833,1.46329,106.959
45,39.811,0.0469437,0.00129251,0.0469615,1.57714,108.92
46,31.623,0.0471464,0.00138813,0.0471668,1.68647,110.947
47,25.119,0.0473872,0.00148722,0.0474106,1.7976,113.018
48,19.953,0.0476267,0.0015641,0.0476524,1.88096,115.298
49,15.849,0.0479227,0.00163916,0.0479508,1.95899,117.638
50,12.589,0.0482073,0.00169139,0.0482369,2.00944,120.021
51,10,0.0485243,0.00171902,0.0485547,2.02891,122.702
52,7.9433,0.0487861,0.00171558,0.0488162,2.014,125.448
53,6.3096,0.0490897,0.00169122,0.0491188,1.97315,128.248
54,5.0119,0.049324,0.00165238,0.0493517,1.91872,131.064
55,3.9811,0.0495672,0.0016139,0.0495935,1.86489,133.878
56,3.1623,0.0497541,0.00157905,0.0497791,1.81779,136.817
57,2.5119,0.049975,0.00155823,0.0499993,1.78592,139.818
58,1.9953,0.0501367,0.00156253,0.0501611,1.78507,142.91
59,1.5849,0.0503079,0.00158448,0.0503328,1.80397,146.037
60,1.2589,0.0504916,0.00164418,0.0505184,1.86509,149.326
61,1,0.0506537,0.00173657,0.0506834,1.96352,152.978
62,0.79433,0.0508238,0.00186083,0.0508578,2.09686,156.626
63,0.63096,0.0510243,0.00202963,0.0510647,2.2779,160.491
64,0.50119,0.0512374,0.00223986,0.0512864,2.50311,164.745
65,0.39811,0.0514631,0.00251738,0.0515246,2.80046,169.404
66,0.31623,0.0517246,0.00281542,0.0518011,3.11559,174.579
67,0.25119,0.0521044,0.00315673,0.0522,3.467,180.38
68,0.19953,0.0524523,0.00354934,0.0525723,3.87118,186.982
69,0.15849,0.0528397,0.00397879,0.0529893,4.3062,194.745
70,0.12589,0.0532768,0.00446117,0.0534633,4.78653,203.709
71,0.1,0.0537023,0.00492859,0.0539279,5.2437,214.345